Shimadzu measurement
Filename
741Labor_aprilis_14_Cu.dat
Identifier
2mN/s meres
Date 2016:4:14
Time 9:39
Indentsize=0 [æm]
 Time [s]         Load [mN]       Displ [æm] 
*****************************************************************

      0.050002      0.001021     -0.005877
      0.100005      0.001329     -0.007686
      0.150006     -0.016704     -0.004188
      0.200008     -0.016454      0.001157
      0.250011      0.072273      0.009081
      0.300013      0.253447      0.022133
      0.350015      0.517824      0.036627
      0.400018      0.835720      0.050770
      0.450019      1.233523      0.064414
      0.500022      1.675775      0.077670
      0.549993      2.171460      0.091370
      0.599996      2.711572      0.106142
      0.649998      3.298993      0.121635
      0.700000      3.914343      0.137958
      0.750002      4.571919      0.154114
      0.800004      5.245526      0.170546
      0.850007      5.960416      0.187410
      0.900008      6.702696      0.204175
      0.950010      7.462912      0.221461
      1.000013      8.247206      0.238727
      1.050015      9.047677      0.256220
      1.100016      9.861485      0.273794
      1.150019     10.685467      0.291748
      1.200021     11.525930      0.309492
      1.249993     12.379393      0.327233
      1.299995     13.238454      0.344908
      1.349998     14.109266      0.362403
      1.399999     14.993096      0.380346
      1.450002     15.888643      0.398325
      1.500004     16.778865      0.416094
      1.550006     17.686877      0.433672
      1.600009     18.584656      0.450958
      1.650011     19.504964      0.468346
      1.700012     20.424184      0.485887
      1.750015     21.339985      0.502712
      1.800017     22.253319      0.519014
      1.850019     23.177249      0.534968
      1.900022     24.111327      0.550974
      1.949994     25.045382      0.566722
      1.999995     25.980638      0.582605
      2.049997     26.924909      0.597937
      2.100000     27.871800      0.613200
      2.150002     28.811284      0.628281
      2.200005     29.757528      0.643073
      2.250007     30.708027      0.657546
      2.300008     31.650147      0.671915
      2.350011     32.595713      0.686007
      2.400013     33.528511      0.700520
      2.450015     34.480945      0.715291
      2.500018     35.432132      0.729867
      2.550019     36.381585      0.744206
      2.600022     37.329479      0.758026
      2.649993     38.269864      0.771441
      2.699996     39.226076      0.784858
      2.749998     40.184324      0.798092
      2.800000     41.135861      0.810979
      2.850002     42.081966      0.823677
      2.900004     43.026847      0.836142
      2.950007     43.976117      0.848399
      3.000009     44.927509      0.860772
      3.050011     45.882029      0.872763
      3.100014     46.838754      0.884775
      3.150015     47.790751      0.896319
      3.200017     48.740323      0.907868
      3.250020     49.693817      0.919177
      3.299992     50.639243      0.930759
      3.349994     51.590835      0.942282
      3.399996     52.544316      0.953812
      3.449998     53.490341      0.965288
      3.500000     54.447966      0.976654
      3.550003     55.400161      0.988226
      3.600005     56.348692      0.999862
      3.650007     57.305520      1.011310
      3.700010     58.269817      1.022713
      3.750011     59.234731      1.033952
      3.800013     60.203253      1.045226
      3.850016     61.157932      1.056472
      3.900018     62.111138      1.067448
      3.950020     63.066682      1.078180
      4.000022     64.021888      1.088999
      4.049994     64.976179      1.099774
      4.099996     65.926595      1.110570
      4.149998     66.886341      1.121141
      4.200001     67.839835      1.131387
      4.250003     68.792586      1.141829
      4.300005     69.751382      1.152570
      4.350007     70.711346      1.163213
      4.400009     71.660764      1.174257
      4.450012     72.617170      1.185112
      4.500014     73.564607      1.195919
      4.550016     74.530217      1.206195
      4.600018     75.482275      1.216481
      4.650020     76.439837      1.226532
      4.699992     77.393807      1.236554
      4.749994     78.350648      1.246795
      4.799997     79.304580      1.257293
      4.849999     80.252231      1.268084
      4.900000     81.202165      1.278407
      4.950003     82.159646      1.288185
      5.000005     83.120257      1.298024
      5.050008     84.083075      1.307428
      5.100010     85.035673      1.317234
      5.150012     85.993109      1.326487
      5.200014     86.946967      1.335730
      5.250016     87.896383      1.345086
      5.300018     88.843631      1.354484
      5.350021     89.809683      1.363735
      5.399993     90.762138      1.372366
      5.449995     91.724940      1.381050
      5.499996     92.678743      1.389597
      5.549999     93.631162      1.397900
      5.600001     94.589048      1.406350
      5.650003     95.543921      1.414565
      5.700006     96.504015      1.422874
      5.750007     97.458434      1.431329
      5.800010     98.413238      1.439426
      5.850012     99.371439      1.448179
      5.900014    100.328427      1.456483
      5.950017    101.281270      1.465239
      6.000019    102.245031      1.473608
      6.050020    103.191153      1.482299
      6.099992    104.143982      1.491525
      6.149995    105.098576      1.500256
      6.199997    106.049265      1.509212
      6.249998    107.006204      1.517700
      6.300001    107.960225      1.526194
      6.350003    108.921995      1.534632
      6.400005    109.878531      1.542836
      6.450007    110.829137      1.551318
      6.500009    111.781729      1.559868
      6.550012    112.740993      1.568418
      6.600014    113.687949      1.576845
      6.650016    114.641530      1.585405
      6.700018    115.597411      1.593964
      6.750020    116.544985      1.602339
      6.799992    117.499732      1.610670
      6.849994    118.453000      1.618961
      6.899997    119.411040      1.626972
      6.949999    120.363609      1.635342
      7.000000    121.326515      1.643485
      7.050003    122.287125      1.651730
      7.100005    123.230410      1.659882
      7.150008    124.197778      1.668318
      7.200010    125.157521      1.676765
      7.250012    126.115895      1.684916
      7.300014    127.069376      1.692985
      7.350016    128.023336      1.701101
      7.400018    128.984440      1.709199
      7.450021    129.937326      1.717464
      7.499993    130.890750      1.726001
      7.549995    131.857476      1.734417
      7.599996    132.809927      1.742480
      7.649999    133.767233      1.750346
      7.700001    134.721583      1.758037
      7.750003    135.675715      1.765751
      7.800006    136.627208      1.773122
      7.850007    137.574496      1.780915
      7.900010    138.524712      1.788478
      7.950012    139.486720      1.796262
      8.000014    140.439809      1.803877
      8.050017    141.400740      1.811586
      8.100019    142.353470      1.819133
      8.150020    143.308584      1.826781
      8.199992    144.267066      1.833847
      8.249995    145.221254      1.841244
      8.299997    146.185615      1.848512
      8.349999    147.137770      1.856090
      8.400002    148.085043      1.863460
      8.450003    149.048674      1.871070
      8.500006    150.002003      1.878468
      8.550008    150.955826      1.885980
      8.600010    151.911313      1.893230
      8.650013    152.870131      1.900853
      8.700015    153.825231      1.908630
      8.750016    154.787972      1.916422
      8.800019    155.739280      1.924351
      8.850021    156.706542      1.931975
      8.899993    157.663749      1.939691
      8.949995    158.627776      1.947246
      8.999998    159.575968      1.954534
      9.049999    160.528220      1.961764
      9.100001    161.479852      1.968882
      9.150004    162.440692      1.976264
      9.200006    163.390900      1.983092
      9.250009    164.355341      1.990335
      9.300011    165.321605      1.997586
      9.350012    166.279746      2.004784
      9.400015    167.233627      2.012055
      9.450017    168.189167      2.019271
      9.500019    169.144370      2.026314
      9.550022    170.103541      2.033386
      9.599993    171.068115      2.040544
      9.649995    172.022292      2.047718
      9.699997    172.977488      2.054785
      9.750000    173.945810      2.062245
      9.800002    174.916177      2.069629
      9.850004    175.866413      2.077069
      9.900006    176.827218      2.084131
      9.950008    177.789601      2.091586
     10.000011    178.749740      2.098356
     10.050013    179.715186      2.105547
     10.100015    180.671979      2.112386
     10.150018    181.636854      2.119517
     10.200019    182.601679      2.126485
     10.250021    183.475514      2.133488
     10.299993    184.246707      2.139913
     10.349996    184.950546      2.145635
     10.399998    185.573625      2.151211
     10.450000    186.149045      2.156291
     10.500002    186.663261      2.160924
     10.550004    187.122393      2.165765
     10.600007    187.534391      2.170122
     10.650009    187.904579      2.174044
     10.700011    188.240800      2.177939
     10.750014    188.542788      2.181567
     10.800015    188.811526      2.185015
     10.850017    189.060715      2.188241
     10.900020    189.283153      2.191632
     10.949992    189.485789      2.194379
     10.999994    189.662668      2.196912
     11.049995    189.824301      2.199253
     11.099998    189.967329      2.201726
     11.150000    190.097275      2.204257
     11.200002    190.216058      2.206413
     11.250005    190.317469      2.208841
     11.300007    190.408128      2.211027
     11.350009    190.489111      2.212933
     11.400011    190.569931      2.214832
     11.450013    190.639617      2.216113
     11.500016    190.702334      2.217450
     11.550018    190.750234      2.218958
     11.600019    190.803721      2.220498
     11.650022    190.850638      2.222311
     11.699993    190.892253      2.223516
     11.749995    190.931538      2.224906
     11.799997    190.963232      2.226156
     11.850000    190.989315      2.227343
     11.900002    191.011569      2.228350
     11.950004    191.041363      2.229317
     12.000006    191.064516      2.230615
     12.050008    191.081692      2.231905
     12.100011    191.102032      2.233127
     12.150013    191.116677      2.234654
     12.200015    191.129857      2.235601
     12.250018    191.136226      2.236698
     12.300019    191.151113      2.237624
     12.350021    191.073568      2.238457
     12.399993    190.895744      2.239451
     12.449996    190.648420      2.240590
     12.499998    190.325729      2.241310
     12.550000    189.934598      2.241775
     12.600002    189.489195      2.242193
     12.650004    188.988233      2.242325
     12.700007    188.443982      2.242566
     12.750009    187.864433      2.242905
     12.800011    187.239688      2.242661
     12.850014    186.582202      2.242564
     12.900015    185.900130      2.242354
     12.950017    185.181894      2.242165
     13.000020    184.443317      2.241506
     13.049992    183.677278      2.240914
     13.099994    182.892016      2.240197
     13.149996    182.093116      2.239492
     13.199998    181.274006      2.239039
     13.250000    180.450747      2.238449
     13.300002    179.594455      2.237979
     13.350005    178.737122      2.237373
     13.400007    177.869695      2.236889
     13.450009    176.991963      2.236514
     13.500011    176.108619      2.236116
     13.550013    175.223276      2.236062
     13.600016    174.327590      2.235404
     13.650018    173.419541      2.234811
     13.700020    172.515016      2.233972
     13.750022    171.601454      2.233401
     13.799994    170.681591      2.233070
     13.849996    169.763381      2.232649
     13.899998    168.837503      2.232027
     13.950001    167.907776      2.231162
     14.000003    166.988012      2.230444
     14.050004    166.058294      2.229676
     14.100007    165.119618      2.228985
     14.150009    164.177152      2.228118
     14.200012    163.233716      2.227339
     14.250014    162.291849      2.226820
     14.300016    161.344680      2.226048
     14.350018    160.399453      2.225598
     14.400020    159.460246      2.225009
     14.449992    158.513640      2.224540
     14.499994    157.565258      2.223691
     14.549997    156.620159      2.222927
     14.599999    155.671913      2.222178
     14.650000    154.723275      2.221382
     14.700003    153.779168      2.220849
     14.750005    152.825710      2.220491
     14.800008    151.874823      2.219864
     14.850010    150.925029      2.219238
     14.900011    149.960959      2.218919
     14.950014    149.019443      2.218449
     15.000016    148.067707      2.217965
     15.050018    147.114097      2.217529
     15.100021    146.163684      2.216710
     15.149993    145.211265      2.216156
     15.199994    144.260702      2.215474
     15.249996    143.301434      2.215226
     15.299999    142.354474      2.214637
     15.350001    141.406993      2.214046
     15.400003    140.450499      2.213758
     15.450006    139.493218      2.213255
     15.500007    138.537058      2.212863
     15.550010    137.582519      2.212327
     15.600012    136.630049      2.211417
     15.650014    135.681882      2.210660
     15.700017    134.727212      2.209612
     15.750019    133.775234      2.208791
     15.800020    132.823237      2.207930
     15.849992    131.868782      2.207094
     15.899995    130.915778      2.206341
     15.949997    129.963468      2.205664
     15.999999    129.014224      2.204810
     16.050002    128.061636      2.203981
     16.100003    127.107260      2.203113
     16.150005    126.153716      2.202270
     16.200008    125.197868      2.201207
     16.250010    124.247272      2.200188
     16.300013    123.286753      2.199516
     16.350015    122.333784      2.198789
     16.400016    121.372961      2.197830
     16.450019    120.426431      2.197210
     16.500021    119.467131      2.196530
     16.549993    118.502442      2.195919
     16.599995    117.545718      2.195552
     16.649997    116.598607      2.194549
     16.699999    115.644276      2.193648
     16.750001    114.687720      2.192348
     16.800004    113.733435      2.191605
     16.850006    112.770817      2.190570
     16.900039    111.808635      2.189517
     16.950010    110.848674      2.189058
     17.000012    109.890104      2.188278
     17.050014    108.937058      2.187515
     17.100016    107.971893      2.186401
     17.150018    107.019014      2.185459
     17.200021    106.065597      2.184490
     17.249993    105.099487      2.183434
     17.299994    104.142707      2.182790
     17.349996    103.186388      2.181965
     17.399999    102.225603      2.180979
     17.450001    101.274224      2.180519
     17.500003    100.311170      2.179433
     17.550006     99.362023      2.178944
     17.600007     98.403419      2.178199
     17.650010     97.440576      2.177590
     17.700012     96.493450      2.176797
     17.750014     95.532392      2.176388
     17.800017     94.582600      2.176021
     17.850019     93.633181      2.175202
     17.900020     92.681046      2.174831
     17.949992     91.727688      2.173765
     17.999995     90.769566      2.172988
     18.049997     89.821806      2.171984
     18.099999     88.872385      2.170470
     18.150002     87.919638      2.169474
     18.200003     86.963898      2.168272
     18.250005     86.004243      2.167618
     18.300008     85.039843      2.166662
     18.350010     84.089485      2.165436
     18.400013     83.129181      2.164455
     18.450015     82.177015      2.163267
     18.500016     81.223629      2.162197
     18.550019     80.268534      2.160746
     18.600021     79.321667      2.159258
     18.649993     78.369997      2.157857
     18.699995     77.411565      2.156718
     18.749997     76.464746      2.155571
     18.799999     75.495419      2.154783
     18.850001     74.536354      2.153890
     18.900004     73.576759      2.152904
     18.950006     72.624010      2.151772
     19.000008     71.667047      2.150814
     19.050010     70.704461      2.149830
     19.100012     69.745969      2.148579
     19.150015     68.789940      2.147940
     19.200017     67.838571      2.146755
     19.250019     66.887123      2.145567
     19.300022     65.924616      2.144314
     19.349993     64.977183      2.143004
     19.399995     64.024393      2.141641
     19.449997     63.066173      2.140049
     19.500000     62.113441      2.138738
     19.550002     61.157715      2.137191
     19.600004     60.205396      2.135616
     19.650006     59.246990      2.134321
     19.700008     58.289818      2.133278
     19.750011     57.336809      2.131911
     19.800013     56.382054      2.130376
     19.850015     55.423896      2.128933
     19.900018     54.473662      2.127452
     19.950019     53.510417      2.126302
     20.000021     52.556826      2.124656
     20.049993     51.597884      2.123053
     20.099996     50.636568      2.121488
     20.149998     49.682881      2.120019
     20.199999     48.723854      2.118147
     20.250002     47.770396      2.116402
     20.300004     46.809743      2.114709
     20.350006     45.851160      2.113124
     20.400009     44.900543      2.111331
     20.450011     43.939395      2.109962
     20.500013     42.976705      2.108180
     20.550015     42.021170      2.106577
     20.600017     41.059259      2.104768
     20.650020     40.098933      2.102529
     20.699992     39.151631      2.100148
     20.749994     38.197129      2.097822
     20.799995     37.248353      2.095789
     20.849998     36.287643      2.093533
     20.900000     35.333890      2.091624
     20.950002     34.386400      2.089540
     21.000005     33.425626      2.087237
     21.050007     32.465712      2.085226
     21.100008     31.509015      2.083415
     21.150011     30.560095      2.081420
     21.200013     29.604138      2.079196
     21.250016     28.648560      2.076951
     21.300018     27.692102      2.074747
     21.350020     26.738516      2.072581
     21.400022     25.772864      2.070265
     21.449994     24.816496      2.067692
     21.499996     23.865432      2.065255
     21.549998     22.904492      2.062939
     21.600001     21.945650      2.060488
     21.650003     20.988697      2.057978
     21.700004     20.039547      2.055352
     21.750007     19.087045      2.052623
     21.800009     18.133355      2.049739
     21.850012     17.188363      2.047022
     21.900014     16.226174      2.044332
     21.950015     15.269871      2.041728
     22.000018     14.316423      2.038774
     22.050020     13.353949      2.035688
     22.099992     12.399219      2.032667
     22.149994     11.434370      2.029154
     22.199997     10.484828      2.025566
     22.249998      9.535634      2.020688
     22.300000      8.588585      1.997377
     22.350002      7.638582      1.920182
     22.400004      6.707285      1.725767
     22.450006      5.756812      1.377206
     22.500009      5.010030      0.907127
     22.550011      4.422766      0.388412
     22.600013      3.981510     -0.095461
     22.650015      3.682648     -0.454406
     22.700017      3.497902     -0.588307
     22.750020      3.427457     -0.485853
     22.799992      3.458663     -0.299587
     22.849994      3.587457     -0.092824
     22.899995      3.802251      0.109987
     22.949998      4.087730      0.297888
     23.000000      4.436215      0.468952
     23.050002      4.854223      0.623764
     23.100005      5.327478      0.763705
     23.150007      5.849233      0.889957
     23.200008      6.402433      1.004011
     23.250011      6.993698      1.106904
     23.300013      7.635091      1.200179
     23.350016      8.306341      1.284310
     23.400018      9.000799      1.360699
     23.450020      9.727131      1.429449
     23.500022     10.466890      1.491813
     23.549994     11.244370      1.548062
     23.599996     12.031383      1.598503
     23.649998     12.823315      1.644388
     23.700001     13.653853      1.685624
     23.750003     14.479463      1.723346
     23.800004     15.331157      1.757968
     23.850007     16.180080      1.789310
     23.900009     17.053365      1.817580
     23.950012     17.927824      1.843205
     24.000014     18.815547      1.866574
     24.050015     19.695675      1.887910
     24.100018     20.590331      1.907296
     24.150020     21.491959      1.925049
     24.199992     22.404133      1.941636
     24.249994     23.316034      1.956748
     24.299997     24.224636      1.970776
     24.349998     25.142478      1.983585
     24.400000     26.071076      1.995234
     24.450003     27.002641      2.005719
     24.500005     27.934434      2.015827
     24.550007     28.862161      2.025351
     24.600010     29.795994      2.033861
     24.650011     30.737153      2.041826
     24.700014     31.669036      2.048994
     24.750016     32.607220      2.055934
     24.800018     33.548022      2.062485
     24.850021     34.491181      2.068991
     24.899993     35.437682      2.074908
     24.949994     36.389022      2.080538
     24.999996     37.332509      2.085910
     25.049999     38.281747      2.090684
