Shimadzu measurement
Filename
737Labor_aprilis_7_145Mg_2mN.dat
Identifier
2mN/s meres
Date 2016:4:7
Time 11:27
Indentsize=0 [æm]
 Time [s]         Load [mN]       Displ [æm] 
*****************************************************************

      0.050002      0.011232     -0.000183
      0.100004      0.007912     -0.000226
      0.150006     -0.007283     -0.000204
      0.200009     -0.005089     -0.000123
      0.250011      0.004210      0.000316
      0.300013      0.017462      0.000590
      0.350016      0.039155      0.000836
      0.399987      0.074547      0.000996
      0.449989      0.121049      0.001201
      0.499991      0.170226      0.001752
      0.549994      0.222419      0.002004
      0.599996      0.273055      0.002780
      0.649998      0.324731      0.003539
      0.700000      0.392602      0.004284
      0.750002      0.440258      0.004526
      0.800004      0.501459      0.004989
      0.850007      0.558982      0.005650
      0.900009      0.620518      0.006183
      0.950012      0.698484      0.006968
      1.000013      0.775978      0.007004
      1.050015      0.849384      0.007463
      1.099987      0.948409      0.007510
      1.149990      1.024104      0.007857
      1.199992      1.096502      0.007987
      1.249994      1.183023      0.007737
      1.299996      1.260281      0.007695
      1.349998      1.354838      0.007902
      1.399999      1.439940      0.008455
      1.450002      1.526907      0.008402
      1.500004      1.610671      0.009210
      1.550007      1.695214      0.009631
      1.600009      1.785951      0.010499
      1.650010      1.869446      0.011036
      1.700013      1.962902      0.011885
      1.750015      2.056168      0.012100
      1.799987      2.153535      0.012599
      1.849989      2.246049      0.012987
      1.899992      2.328090      0.013336
      1.949993      2.433666      0.013711
      1.999995      2.536619      0.014110
      2.049998      2.626225      0.014590
      2.100000      2.723350      0.015084
      2.150002      2.817477      0.015407
      2.200004      2.912567      0.016002
      2.250006      3.011576      0.016355
      2.300009      3.106177      0.017282
      2.350011      3.203525      0.017629
      2.400013      3.295411      0.018185
      2.450016      3.387875      0.018381
      2.499987      3.474754      0.018496
      2.549989      3.571256      0.018965
      2.599991      3.661770      0.019082
      2.649994      3.752998      0.019676
      2.699996      3.850363      0.019967
      2.749998      3.948367      0.020350
      2.800000      4.044505      0.021428
      2.850002      4.140796      0.022031
      2.900004      4.245768      0.023124
      2.950007      4.335360      0.023680
      3.000009      4.444070      0.024913
      3.050012      4.542518      0.025900
      3.100013      4.626850      0.027033
      3.150015      4.722280      0.027992
      3.199987      4.814881      0.029038
      3.249990      4.902494      0.030162
      3.299992      5.007591      0.031418
      3.349994      5.095465      0.032365
      3.399996      5.183707      0.033218
      3.449998      5.280825      0.033619
      3.500000      5.376166      0.034468
      3.550003      5.466246      0.035172
      3.600005      5.568680      0.035805
      3.650007      5.659650      0.036558
      3.700009      5.757392      0.036869
      3.750011      5.854515      0.038126
      3.800014      5.947420      0.039135
      3.850016      6.042020      0.040470
      3.899988      6.131433      0.041306
      3.949989      6.222281      0.042424
      3.999992      6.325407      0.043736
      4.049994      6.417609      0.044794
      4.099996      6.517682      0.046174
      4.149999      6.621175      0.046927
      4.200001      6.716761      0.048277
      4.250002      6.814384      0.049064
      4.300005      6.906518      0.049956
      4.350007      6.993711      0.050636
      4.400010      7.085002      0.051188
      4.450012      7.179372      0.051989
      4.500014      7.280784      0.052344
      4.550016      7.369613      0.053091
      4.599988      7.465429      0.053946
      4.649990      7.564481      0.054350
      4.699992      7.662783      0.054957
      4.749995      7.764683      0.055382
      4.799997      7.861886      0.055947
      4.849998      7.967070      0.056456
      4.900001      8.053800      0.057096
      4.950003      8.152609      0.057917
      5.000005      8.237265      0.059084
      5.050008      8.329325      0.060621
      5.100010      8.423776      0.062249
      5.150012      8.515495      0.063776
      5.200014      8.610861      0.065150
      5.249986      8.703403      0.066813
      5.299988      8.794626      0.068555
      5.349991      8.893817      0.070061
      5.399992      8.987972      0.071844
      5.449994      9.080035      0.074974
      5.499997      9.176931      0.079684
      5.549999      9.272682      0.085265
      5.600001      9.368013      0.091570
      5.650004      9.468460      0.099747
      5.700005      9.564356      0.107534
      5.750008      9.653103      0.114602
      5.800010      9.748845      0.120903
      5.850012      9.842337      0.126941
      5.900015      9.941739      0.132740
      5.949986     10.033032      0.138509
      5.999988     10.129233      0.144128
      6.049990     10.232295      0.149918
      6.099993     10.329323      0.155495
      6.149995     10.424582      0.160210
      6.199997     10.518251      0.164818
      6.250000     10.612928      0.169028
      6.300001     10.699359      0.172999
      6.350003     10.802782      0.176695
      6.400006     10.905018      0.180083
      6.450008     11.000692      0.183315
      6.500011     11.095344      0.186102
      6.550013     11.190297      0.188671
      6.600014     11.289182      0.191166
      6.649986     11.386113      0.193778
      6.700019     11.480676      0.196251
      6.749990     11.573717      0.198720
      6.799992     11.665999      0.206009
      6.849995     11.758819      0.214827
      6.899997     11.857615      0.223618
      6.949998     11.943481      0.231408
      7.000001     12.036629      0.238480
      7.050003     12.143656      0.245333
      7.100005     12.233876      0.251256
      7.150008     12.327282      0.256709
      7.200010     12.430879      0.261312
      7.250012     12.527168      0.265760
      7.300014     12.632749      0.269579
      7.349986     12.722889      0.273261
      7.399988     12.812560      0.276575
      7.449991     12.908524      0.279924
      7.499992     13.000384      0.282937
      7.549994     13.089161      0.285222
      7.599997     13.187372      0.287279
      7.649999     13.290410      0.289130
      7.700001     13.385586      0.291040
      7.750004     13.481010      0.298679
      7.800005     13.572996      0.310987
      7.850008     13.666769      0.324750
      7.900010     13.761541      0.337319
      7.950012     13.855381      0.349059
      8.000015     13.955706      0.359502
      8.049986     14.050272      0.368535
      8.099988     14.146367      0.377215
      8.149990     14.244449      0.384476
      8.199993     14.346762      0.391684
      8.249995     14.440675      0.397743
      8.299997     14.538624      0.403257
      8.350000     14.629219      0.408159
      8.400001     14.723573      0.412753
      8.450003     14.816426      0.416583
      8.500006     14.918305      0.420519
      8.550008     15.008164      0.424061
      8.600011     15.101855      0.427553
      8.650013     15.188009      0.430758
      8.700014     15.282026      0.433520
      8.749986     15.373356      0.438203
      8.799988     15.462877      0.445165
      8.849991     15.561147      0.451674
      8.899993     15.649589      0.457655
      8.949996     15.752381      0.463037
      8.999997     15.851608      0.467881
      9.049999     15.948847      0.472363
      9.100002     16.050400      0.476397
      9.150004     16.143019      0.480088
      9.200006     16.242245      0.482800
      9.250008     16.345587      0.485424
      9.300010     16.434322      0.487908
      9.350013     16.534325      0.490082
      9.400015     16.632263      0.492099
      9.449987     16.720407      0.493732
      9.499989     16.811334      0.495324
      9.549991     16.915751      0.496939
      9.599993     17.017051      0.498271
      9.649995     17.116155      0.499714
      9.699998     17.209012      0.500769
      9.750000     17.313945      0.501901
      9.800002     17.412657      0.502798
      9.850004     17.509433      0.503971
      9.900006     17.614232      0.504722
      9.950009     17.710992      0.505825
     10.000011     17.804791      0.509076
     10.050013     17.911182      0.513894
     10.100016     18.006324      0.518841
     10.149986     18.103549      0.523537
     10.199989     18.195934      0.527275
     10.249991     18.292508      0.530762
     10.299994     18.391022      0.534205
     10.349996     18.474802      0.537303
     10.399998     18.569124      0.540031
     10.450000     18.664391      0.542669
     10.500002     18.766611      0.545104
     10.550004     18.862271      0.547296
     10.600007     18.964844      0.549452
     10.650009     19.063264      0.551758
     10.700011     19.156725      0.553529
     10.750013     19.244502      0.555061
     10.800015     19.341812      0.556258
     10.849987     19.433664      0.557395
     10.899989     19.529148      0.558602
     10.949992     19.619966      0.559749
     10.999993     19.720624      0.560843
     11.049996     19.799009      0.561766
     11.099998     19.886035      0.562780
     11.150000     19.989383      0.563570
     11.200003     20.093993      0.564770
     11.250005     20.185091      0.566033
     11.300006     20.278675      0.567108
     11.350009     20.370226      0.568260
     11.400011     20.464829      0.569112
     11.450014     20.560347      0.570429
     11.500016     20.648755      0.571554
     11.549988     20.739309      0.572626
     11.599989     20.836066      0.573470
     11.649992     20.933524      0.574717
     11.699994     21.032223      0.575779
     11.749996     21.128986      0.576673
     11.799999     21.220956      0.578028
     11.850001     21.314715      0.579430
     11.900002     21.411306      0.580630
     11.950005     21.505562      0.581589
     12.000007     21.605651      0.582574
     12.050010     21.695732      0.583521
     12.100011     21.789622      0.583946
     12.150013     21.885109      0.584818
     12.200016     21.976541      0.585357
     12.249986     22.069817      0.585599
     12.299989     22.170854      0.586061
     12.349991     22.264230      0.587453
     12.399994     22.362917      0.591575
     12.449996     22.458448      0.597176
     12.499998     22.549310      0.602950
     12.550000     22.650617      0.608207
     12.600002     22.736300      0.613000
     12.650004     22.835388      0.617314
     12.700007     22.932502      0.621135
     12.750009     23.022345      0.624757
     12.800012     23.120905      0.627712
     12.850013     23.217544      0.630371
     12.900015     23.310012      0.633253
     12.949987     23.406661      0.635480
     12.999989     23.501580      0.637789
     13.049992     23.594941      0.639197
     13.099993     23.697888      0.641074
     13.149996     23.796643      0.642641
     13.199998     23.893458      0.644357
     13.250000     23.986085      0.645779
     13.300003     24.087759      0.647180
     13.350005     24.181708      0.648625
     13.400006     24.268703      0.649742
     13.450009     24.358596      0.650931
     13.500011     24.457810      0.652306
     13.550014     24.558089      0.653299
     13.600016     24.659327      0.654743
     13.649988     24.748610      0.656042
     13.699989     24.848496      0.657699
     13.749992     24.942056      0.658763
     13.799994     25.043350      0.660209
     13.849996     25.127190      0.661023
     13.899999     25.217295      0.662060
     13.950001     25.313038      0.663115
     14.000002     25.401038      0.664248
     14.050005     25.494276      0.665268
     14.100007     25.590397      0.666125
     14.150009     25.689724      0.666591
     14.200012     25.792546      0.667315
     14.250014     25.891190      0.667723
     14.300016     25.982411      0.668762
     14.349987     26.076106      0.669635
     14.399990     26.167146      0.670727
     14.449992     26.269834      0.673601
     14.499995     26.365915      0.677043
     14.549996     26.462765      0.680384
     14.599998     26.556033      0.683330
     14.650001     26.660116      0.686104
     14.700003     26.753181      0.689943
     14.750005     26.849146      0.694436
     14.800008     26.953215      0.699823
     14.850009     27.048709      0.705403
     14.900012     27.141367      0.710303
     14.950014     27.227201      0.715140
     14.999986     27.323372      0.719555
     15.049988     27.426406      0.723345
     15.099990     27.523409      0.727122
     15.149992     27.614985      0.730094
     15.199994     27.713882      0.733013
     15.249997     27.801059      0.735275
     15.299999     27.895998      0.737370
     15.350001     27.996702      0.739562
     15.400004     28.085505      0.741473
     15.450005     28.181296      0.743316
     15.500007     28.283988      0.745096
     15.550010     28.373970      0.747064
     15.600012     28.472043      0.748592
     15.650015     28.566413      0.749905
     15.699986     28.656839      0.751393
     15.749988     28.744937      0.752609
     15.799990     28.835821      0.754193
     15.849993     28.931655      0.755617
     15.899995     29.024010      0.756289
     15.949997     29.122388      0.756955
     16.000000     29.220694      0.758348
     16.050001     29.316494      0.760639
     16.100003     29.408207      0.762701
     16.150006     29.505397      0.764862
     16.200008     29.597141      0.767356
     16.250010     29.696191      0.771249
     16.300012     29.792659      0.781284
     16.350014     29.879481      0.792146
     16.399986     29.980814      0.802532
     16.449988     30.087884      0.811818
     16.499991     30.176922      0.820725
     16.549993     30.263160      0.828559
     16.599995     30.359085      0.836036
     16.649997     30.455183      0.843254
     16.699999     30.562424      0.849384
     16.750002     30.658940      0.854778
     16.800004     30.759233      0.859390
     16.850006     30.853159      0.864150
     16.900008     30.952951      0.868434
     16.950010     31.044595      0.871863
     17.000013     31.142334      0.875437
     17.050015     31.240064      0.878410
     17.099987     31.337788      0.881573
     17.149989     31.436115      0.884359
     17.199990     31.532544      0.887233
     17.249993     31.626654      0.890857
     17.299995     31.718678      0.894302
     17.349998     31.814317      0.897280
     17.399999     31.909548      0.899899
     17.450001     32.003800      0.902074
     17.500004     32.102055      0.904092
     17.550005     32.199030      0.906152
     17.600007     32.295463      0.908189
     17.650010     32.391408      0.910023
     17.700012     32.483861      0.911917
     17.750015     32.568901      0.913500
     17.799986     32.660696      0.914986
     17.849988     32.757960      0.916262
     17.899990     32.850990      0.917837
     17.949993     32.952419      0.918950
     17.999995     33.044314      0.920074
     18.049997     33.139228      0.920902
     18.100000     33.232584      0.921648
     18.150001     33.333085      0.922257
     18.200003     33.427198      0.922989
     18.250006     33.529600      0.923892
     18.300008     33.622982      0.924766
     18.350010     33.724117      0.925430
     18.400012     33.812086      0.926028
     18.450014     33.905907      0.927970
     18.499986     33.997060      0.933074
     18.549988     34.087642      0.938218
     18.599991     34.180153      0.942908
     18.649993     34.279892      0.947373
     18.699995     34.372099      0.951575
     18.749997     34.467903      0.955418
     18.799999     34.565113      0.958388
     18.850002     34.656264      0.961244
     18.900004     34.759663      0.963815
     18.950006     34.854553      0.966251
     19.000008     34.941785      0.968504
     19.050010     35.040435      0.970226
     19.100013     35.128611      0.971838
     19.150015     35.216513      0.973288
     19.199987     35.307223      0.975082
     19.249989     35.405341      0.976391
     19.299990     35.506465      0.978057
     19.349993     35.602970      0.979740
     19.399995     35.699590      0.980705
     19.449998     35.798755      0.981940
     19.500000     35.897770      0.982929
     19.550002     35.992986      0.983881
     19.600004     36.089668      0.984737
     19.650006     36.192550      0.985691
     19.700008     36.282704      0.986671
     19.750011     36.383983      0.987188
     19.800013     36.478187      0.988141
     19.850016     36.576398      0.988571
     19.899986     36.676385      0.988958
     19.949989     36.769424      0.989551
     19.999991     36.866588      0.993380
     20.049994     36.958308      0.998536
     20.099996     37.049401      1.002993
     20.149997     37.146644      1.007736
     20.200000     37.241487      1.011700
     20.250002     37.335391      1.015451
     20.300004     37.435163      1.018583
     20.350007     37.526179      1.021462
     20.400009     37.620910      1.024359
     20.450010     37.720818      1.026599
     20.500013     37.810734      1.028860
     20.550015     37.910580      1.030895
     20.599987     38.004714      1.032909
     20.649989     38.105915      1.034783
     20.699992     38.207981      1.036287
     20.749993     38.306555      1.037884
     20.799996     38.403207      1.039016
     20.849998     38.497517      1.040463
     20.900000     38.589111      1.041459
     20.950003     38.684363      1.042539
     21.000005     38.779244      1.043511
     21.050006     38.872573      1.044264
     21.100009     38.965114      1.045308
     21.150011     39.055114      1.045698
     21.200014     39.145880      1.046232
     21.250016     39.251374      1.046651
     21.299988     39.353643      1.047090
     21.349989     39.455450      1.047424
     21.399991     39.553181      1.047602
     21.449994     39.653345      1.047641
     21.499996     39.744714      1.047798
     21.549999     39.849530      1.048061
     21.600000     39.945695      1.048542
     21.650002     40.042009      1.048913
     21.700005     40.128081      1.049248
     21.750007     40.219585      1.049549
     21.800009     40.309262      1.049759
     21.850012     40.402789      1.050070
     21.900013     40.492457      1.050106
     21.950016     40.590859      1.050321
     21.999987     40.684303      1.050332
     22.049990     40.780610      1.050525
     22.099992     40.870338      1.051919
     22.149994     40.956586      1.053235
     22.199996     41.053131      1.055457
     22.249998     41.151008      1.056968
     22.300001     41.239708      1.058755
     22.350003     41.332355      1.060181
     22.400005     41.432828      1.061281
     22.450008     41.528136      1.063248
     22.500009     41.621237      1.064041
     22.550011     41.726392      1.065731
     22.600014     41.814927      1.066520
     22.649986     41.901933      1.067353
     22.699988     41.996107      1.068712
     22.749989     42.092462      1.069813
     22.799992     42.191388      1.071171
     22.849993     42.283473      1.072026
     22.899996     42.375505      1.073163
     22.949998     42.574302      1.074429
     23.000000     42.662886      1.075996
     23.050003     42.752378      1.078017
     23.100005     42.844517      1.079775
     23.150006     42.929884      1.081967
     23.200009     43.024415      1.083574
     23.250011     43.101558      1.085631
     23.300014     43.197232      1.087299
     23.350016     43.288221      1.088678
     23.399988     43.376215      1.090407
     23.449989     43.464566      1.091841
     23.499991     43.559340      1.093254
     23.549994     43.647078      1.094221
     23.599996     43.742522      1.095762
     23.649999     43.836967      1.097210
     23.700001     43.931733      1.098208
     23.750002     44.030450      1.099534
     23.800005     44.118686      1.100910
     23.850007     44.205422      1.102515
     23.900009     44.306068      1.103532
     23.950012     44.394208      1.104936
     24.000013     44.494286      1.105894
     24.050016     44.594732      1.106878
     24.099987     44.693679      1.107947
     24.149990     44.788835      1.108848
     24.199992     44.880579      1.109659
     24.249994     44.974745      1.110450
     24.299996     45.069260      1.111894
     24.349998     45.165311      1.113987
     24.400001     45.256639      1.118130
     24.450003     45.353483      1.125764
     24.500005     45.444915      1.134344
     24.550008     45.540022      1.145484
     24.600009     45.637214      1.156792
     24.650011     45.736285      1.167579
     24.700014     45.833383      1.176921
     24.749986     45.930537      1.185452
     24.799988     46.015534      1.193251
     24.849990     46.114615      1.200270
     24.899992     46.212943      1.206588
     24.949994     46.302048      1.212090
     24.999997     46.404827      1.217165
     25.049999     46.497327      1.221976
     25.100001     46.587902      1.226184
     25.150004     46.689561      1.229849
     25.200005     46.779834      1.233208
     25.250007     46.887325      1.236110
     25.300010     46.990170      1.238599
     25.350012     47.088835      1.241572
     25.400015     47.180685      1.243759
     25.450016     47.284102      1.245606
     25.499988     47.381450      1.248366
     25.549990     47.480049      1.252132
     25.599992     47.573062      1.255644
     25.649995     47.661655      1.258987
     25.699997     47.757259      1.261997
     25.749999     47.845134      1.264583
     25.800001     47.944973      1.267216
     25.850003     48.038491      1.269585
     25.900006     48.131202      1.271473
     25.950008     48.229290      1.273295
     26.000010     48.326725      1.274751
     26.050012     48.414417      1.276612
     26.100014     48.514091      1.278347
     26.149986     48.608071      1.279786
     26.199988     48.699367      1.280715
     26.249991     48.793130      1.281674
     26.299993     48.886672      1.283025
     26.349994     48.973301      1.284424
     26.399997     49.075072      1.285866
     26.449999     49.167276      1.287042
     26.500002     49.266128      1.287734
     26.550004     49.364862      1.288723
     26.600006     49.461656      1.288881
     26.650008     49.556096      1.289572
     26.700010     49.654519      1.290133
     26.750012     49.747373      1.290516
     26.800015     49.840707      1.291532
     26.849987     49.932032      1.291653
     26.899989     50.027042      1.292006
     26.949990     50.124148      1.292385
     26.999993     50.218868      1.292542
     27.049995     50.314492      1.292562
     27.099998     50.411540      1.292641
     27.150000     50.508038      1.293140
     27.200001     50.602211      1.293100
     27.250004     50.696733      1.293674
     27.300006     50.788516      1.294008
     27.350008     50.887601      1.294431
     27.400011     50.980439      1.295117
     27.450013     51.071318      1.295306
     27.500014     51.166537      1.295599
     27.549986     51.262000      1.295802
     27.599989     51.352799      1.295801
     27.649991     51.449168      1.295861
     27.699993     51.543223      1.295732
     27.749996     51.644963      1.295861
     27.799997     51.743244      1.296037
     27.850000     51.835968      1.296501
     27.900002     51.926134      1.296796
     27.950004     52.024984      1.297428
     28.000007     52.123715      1.299523
     28.050009     52.215014      1.302324
     28.100010     52.310001      1.305028
     28.150012     52.411969      1.307156
     28.200014     52.508013      1.309499
     28.249986     52.607270      1.311669
     28.299988     52.705146      1.313621
     28.349991     52.801169      1.315379
     28.399993     52.902239      1.316960
     28.449994     52.997474      1.318323
     28.499997     53.095393      1.319854
     28.549999     53.184740      1.322026
     28.600002     53.286516      1.324041
     28.650004     53.376893      1.325977
     28.700006     53.472271      1.327842
     28.750008     53.569098      1.329398
     28.800010     53.661125      1.331164
     28.850012     53.754935      1.332510
     28.900015     53.846079      1.334210
     28.949987     53.943367      1.335922
     28.999989     54.037640      1.337281
     29.049990     54.138356      1.338503
     29.099993     54.230831      1.340153
     29.149995     54.329317      1.342980
     29.199998     54.424058      1.347600
     29.250000     54.514819      1.352063
     29.300001     54.614204      1.356080
     29.350004     54.709754      1.359634
     29.400006     54.804904      1.363565
     29.450008     54.907020      1.367408
     29.500011     54.998313      1.370439
     29.550013     55.090853      1.373229
     29.600014     55.188177      1.375495
     29.649986     55.278821      1.377779
     29.699989     55.376880      1.379591
     29.749991     55.476730      1.381282
     29.799993     55.573920      1.382926
     29.849996     55.674208      1.384223
     29.899997     55.762636      1.385207
     29.950000     55.853818      1.386397
     30.000002     55.951751      1.387591
     30.050004     56.054540      1.388787
     30.100007     56.145829      1.389681
     30.150009     56.237145      1.390546
     30.200010     56.337640      1.391569
     30.250013     56.429306      1.392673
     30.300015     56.520350      1.393178
     30.349987     56.615108      1.393816
     30.399989     56.710156      1.394329
     30.449992     56.798750      1.394973
     30.499993     56.897407      1.395431
     30.549995     56.989249      1.396027
     30.599998     57.082284      1.396380
     30.650000     57.172118      1.396453
     30.700003     57.267008      1.396763
     30.750005     57.368888      1.397225
     30.800006     57.458749      1.397947
     30.850009     57.556104      1.398718
     30.900011     57.651048      1.399412
     30.950013     57.748094      1.399976
     31.000016     57.841539      1.400422
     31.049987     57.934795      1.400640
     31.099989     58.038257      1.401508
     31.149991     58.131983      1.406257
     31.199994     58.231596      1.411690
     31.249996     58.335895      1.416947
     31.299999     58.440752      1.421433
     31.350000     58.532071      1.425288
     31.400002     58.631348      1.429245
     31.450005     58.725580      1.432624
     31.500007     58.819545      1.436214
     31.550009     58.915100      1.439506
     31.600012     59.007202      1.442103
     31.650013     59.096198      1.444318
     31.700015     59.189112      1.446800
     31.749987     59.283722      1.449033
     31.799990     59.376194      1.451166
     31.849992     59.469185      1.453329
     31.899994     59.563253      1.455032
     31.949996     59.658901      1.456808
     31.999998     59.744984      1.458102
     32.050001     59.849925      1.459022
     32.100003     59.937658      1.459912
     32.150005     60.033097      1.460407
     32.200008     60.128148      1.461402
     32.250009     60.225291      1.462053
     32.300011     60.318823      1.463006
     32.350014     60.423143      1.463863
     32.399986     60.518863      1.464634
     32.449988     60.610504      1.465634
     32.499989     60.700305      1.466411
     32.549992     60.797606      1.467294
     32.599994     60.896163      1.468089
     32.649996     60.986085      1.468865
     32.699999     61.082274      1.469624
     32.750001     61.180441      1.470125
     32.800003     61.274285      1.470819
     32.850005     61.368510      1.474191
     32.900007     61.467351      1.478080
     32.950010     61.569735      1.481458
     33.000012     61.664933      1.484865
     33.050014     61.764650      1.487992
     33.100016     61.864771      1.490989
     33.149988     61.960373      1.493687
     33.199990     62.061063      1.496175
     33.249992     62.152905      1.498049
     33.299995     62.252043      1.500285
     33.349997     62.363851      1.504128
     33.400029     62.469970      1.509052
     33.450000     62.571582      1.513361
     33.500002     62.670357      1.517728
     33.550005     62.773902      1.521658
     33.600007     62.868314      1.525134
     33.650009     62.961830      1.528079
     33.700012     63.056371      1.530791
     33.750013     63.142678      1.533048
     33.800015     63.240496      1.535507
     33.849987     63.333415      1.537598
     33.899990     63.422536      1.539846
     33.949992     63.507017      1.541626
     33.999994     63.596478      1.543166
     34.049996     63.696524      1.544674
     34.099998     63.793280      1.546154
     34.150001     63.884633      1.547363
     34.200003     63.983330      1.548940
     34.250005     64.077040      1.549993
     34.300008     64.172976      1.551551
     34.350009     64.270305      1.552770
     34.400011     64.360343      1.554111
     34.450014     64.451143      1.555258
     34.499986     64.549952      1.556228
     34.549988     64.649867      1.557163
     34.599989     64.742233      1.558248
     34.649992     64.839400      1.558797
     34.699994     64.939057      1.559597
     34.749996     65.038515      1.560316
     34.799999     65.134130      1.560903
     34.850001     65.236664      1.561614
     34.900003     65.329554      1.562498
     34.950005     65.424752      1.563355
     35.000007     65.511652      1.563943
     35.050010     65.609393      1.564594
     35.100012     65.697970      1.565181
     35.150014     65.790507      1.565403
     35.200016     65.888439      1.565542
     35.249988     65.989395      1.565545
     35.299990     66.078425      1.566463
     35.349992     66.174421      1.567839
     35.399995     66.270583      1.571214
     35.449997     66.362012      1.574800
     35.499998     66.459557      1.578211
     35.550001     66.547958      1.581525
     35.600003     66.639115      1.584568
     35.650006     66.730313      1.587552
     35.700008     66.826429      1.590298
     35.750010     66.922088      1.593135
     35.800012     67.022220      1.595506
     35.850014     67.120884      1.597762
     35.899986     67.216396      1.600219
     35.949988     67.320056      1.602004
     35.999991     67.409079      1.603610
     36.049993     67.503237      1.604872
     36.099994     67.602628      1.606497
     36.149997     67.695132      1.607592
     36.199999     67.790592      1.609128
     36.250002     67.878948      1.610204
     36.300004     67.982273      1.611051
     36.350005     68.072213      1.612119
     36.400008     68.164756      1.613263
     36.450010     68.261473      1.614353
     36.500012     68.354011      1.615152
     36.550015     68.456217      1.615870
     36.599987     68.548202      1.617432
     36.649988     68.653572      1.619449
     36.699990     68.742301      1.621996
     36.749993     68.838637      1.624593
     36.799995     68.927781      1.626809
     36.849997     69.018387      1.628376
     36.900000     69.117022      1.630030
     36.950001     69.215560      1.631825
     37.000004     69.306074      1.633622
     37.050006     69.407680      1.635546
     37.100008     69.505228      1.637093
     37.150011     69.609501      1.638547
     37.200013     69.707009      1.639673
     37.250014     69.802091      1.640686
     37.299986     69.893158      1.641842
     37.349989     69.985494      1.642882
     37.399991     70.073479      1.644001
     37.449993     70.172198      1.644887
     37.499996     70.268979      1.645683
     37.549997     70.364627      1.646950
     37.599999     70.465359      1.647723
     37.650002     70.552356      1.648725
     37.700004     70.650184      1.649504
     37.750007     70.749827      1.650510
     37.800008     70.838895      1.652027
     37.850010     70.930042      1.654368
     37.900013     71.026724      1.657695
     37.950015     71.124724      1.661972
     37.999987     71.225741      1.666004
     38.049989     71.314826      1.669877
     38.099991     71.411482      1.673607
     38.149993     71.513731      1.677025
     38.199995     71.601483      1.679796
     38.249998     71.689005      1.682840
     38.300000     71.781202      1.685395
     38.350003     71.879439      1.688184
     38.400004     71.969683      1.690693
     38.450006     72.068604      1.693074
     38.500009     72.164956      1.695095
     38.550011     72.259608      1.696913
     38.600013     72.351509      1.698489
     38.650016     72.442154      1.700090
     38.699987     72.540825      1.701409
     38.749988     72.633902      1.702779
     38.799990     72.729267      1.704074
     38.849993     72.828524      1.705177
     38.899995     72.918466      1.706110
     38.949997     73.014672      1.706766
     39.000000     73.112855      1.707112
     39.050001     73.215868      1.707546
     39.100004     73.315904      1.708119
     39.150006     73.411430      1.708635
     39.200008     73.506559      1.709161
     39.250011     73.607433      1.709695
     39.300013     73.693948      1.710603
     39.350014     73.786460      1.711786
     39.399986     73.879486      1.712668
     39.449989     73.964431      1.713706
     39.499991     74.055530      1.714335
     39.549993     74.152167      1.716732
     39.599996     74.241583      1.724016
     39.649997     74.338536      1.732708
     39.699999     74.436781      1.740836
     39.750002     74.531305      1.748213
     39.800004     74.624311      1.754790
     39.850007     74.723886      1.760893
     39.900009     74.822048      1.766264
     39.950010     74.920770      1.771342
     40.000013     75.013893      1.775363
     40.050015     75.113573      1.778859
     40.099987     75.211829      1.782250
     40.149989     75.303312      1.785607
     40.199991     75.396023      1.788629
     40.249993     75.497774      1.791409
     40.299995     75.591791      1.794155
     40.349998     75.689834      1.796444
     40.400000     75.781735      1.798259
     40.450003     75.877874      1.800138
     40.500004     75.973554      1.801584
     40.550006     76.063939      1.803191
     40.600009     76.161155      1.804637
     40.650011     76.262077      1.805755
     40.700013     76.361452      1.806579
     40.750016     76.456993      1.807747
     40.799987     76.567394      1.808554
     40.849989     76.665535      1.809281
     40.899991     76.772172      1.809935
     40.949994     76.876691      1.810524
     40.999996     76.970147      1.811359
     41.049998     77.063413      1.812293
     41.100000     77.160170      1.813195
     41.150002     77.253966      1.814312
     41.200005     77.352420      1.815379
     41.250007     77.445912      1.816094
     41.300009     77.540430      1.816677
     41.350012     77.631601      1.817446
     41.400013     77.726471      1.818077
     41.450015     77.821011      1.818828
     41.499987     77.913420      1.819992
     41.549990     78.010017      1.820857
     41.599992     78.104278      1.821818
     41.649993     78.197658      1.822256
     41.699996     78.293908      1.822223
     41.749998     78.387857      1.822498
     41.800000     78.485838      1.822685
     41.850003     78.584398      1.822792
     41.900005     78.674933      1.822827
     41.950007     78.783270      1.823164
     42.000009     78.872839      1.823040
     42.050011     78.969321      1.823234
     42.100014     79.054933      1.823408
     42.149986     79.146633      1.823565
     42.199988     79.235877      1.823523
     42.249989     79.329624      1.823729
     42.299992     79.415828      1.824159
     42.349994     79.505008      1.824607
     42.399996     79.598088      1.824766
     42.449999     79.695288      1.824970
     42.500001     79.783378      1.825398
     42.550003     79.880360      1.826088
     42.600005     79.973136      1.829822
     42.650007     80.069453      1.837700
     42.700010     80.163462      1.848696
     42.750012     80.263330      1.859202
     42.800014     80.357483      1.868658
     42.850016     80.464804      1.877413
     42.899988     80.557731      1.885475
     42.949990     80.654183      1.892853
     42.999992     80.756248      1.899738
     43.049995     80.850549      1.905689
     43.099997     80.943964      1.911229
     43.149998     81.039025      1.916154
     43.200001     81.140449      1.920342
     43.250003     81.231730      1.924172
     43.300006     81.323649      1.927559
     43.350008     81.413701      1.930911
     43.400009     81.514889      1.933624
     43.450012     81.608400      1.936309
     43.500014     81.707208      1.938787
     43.549986     81.801629      1.940651
     43.599988     81.890880      1.942633
     43.649991     81.988907      1.944295
     43.699992     82.085066      1.945914
     43.749994     82.178933      1.947309
     43.799997     82.270127      1.948687
     43.849999     82.364409      1.949866
     43.900001     82.466964      1.950866
     43.950004     82.558652      1.952010
     44.000005     82.653379      1.953040
     44.050008     82.755113      1.953966
     44.100009     82.855219      1.954678
     44.150011     82.945924      1.955685
     44.200014     83.047091      1.956592
     44.249986     83.144244      1.957224
     44.299988     83.238396      1.958282
     44.349989     83.337782      1.959173
     44.399992     83.428449      1.960463
     44.449994     83.527140      1.961441
     44.499996     83.619014      1.962321
     44.549999     83.718180      1.962991
     44.600001     83.822078      1.963472
     44.650003     83.916197      1.964088
     44.700005     84.000904      1.964764
     44.750007     84.105217      1.965312
     44.800010     84.205812      1.965988
     44.850012     84.298789      1.966292
     44.900014     84.389793      1.966626
     44.950016     84.484514      1.967048
     44.999988     84.567322      1.967551
     45.049990     84.674808      1.967637
     45.099992     84.770935      1.967714
     45.149995     84.856229      1.968028
     45.199997     84.949474      1.968188
     45.249998     85.043769      1.968333
     45.300001     85.140233      1.968768
     45.350003     85.235595      1.969098
     45.400006     85.331796      1.969396
     45.450008     85.430585      1.969542
     45.500009     85.531703      1.969917
     45.550012     85.625760      1.970377
     45.600014     85.720788      1.970668
     45.649986     85.810585      1.970504
     45.699988     85.910324      1.970355
     45.749991     86.000699      1.970161
     45.799992     86.098517      1.969986
     45.849994     86.188384      1.969706
     45.899997     86.286964      1.969333
     45.949999     86.384843      1.969119
     46.000001     86.491854      1.969231
     46.050004     86.580840      1.968783
     46.100005     86.673134      1.969112
     46.150008     86.770238      1.969225
     46.200010     86.857021      1.969632
     46.250012     86.952215      1.969632
     46.300015     87.046435      1.969510
     46.349987     87.143441      1.969522
     46.399988     87.237459      1.969594
     46.449990     87.337946      1.969842
     46.499993     87.433266      1.970187
     46.549995     87.530651      1.970803
     46.599997     87.621960      1.971235
     46.650000     87.711463      1.971563
     46.700001     87.807884      1.972224
     46.750004     87.903819      1.972515
     46.800006     87.993212      1.972898
     46.850008     88.086484      1.973181
     46.900011     88.177142      1.973620
     46.950013     88.274604      1.973526
     47.000014     88.367813      1.973686
     47.049986     88.454752      1.974135
     47.099989     88.554361      1.974173
     47.149991     88.650722      1.974635
     47.199993     88.750265      1.975172
     47.249995     88.849620      1.975595
     47.299997     88.948805      1.977135
     47.349999     89.049057      1.978826
     47.400002     89.147830      1.980592
     47.450004     89.239167      1.981876
     47.500007     89.339681      1.984070
     47.550008     89.440519      1.986593
     47.600010     89.532495      1.988865
     47.650013     89.626259      1.990909
     47.700015     89.724686      1.992687
     47.749987     89.818762      1.994349
     47.799989     89.913197      1.996394
     47.849991     90.018941      1.998173
     47.899993     90.111059      1.999714
     47.949995     90.208613      2.000734
     47.999998     90.298854      2.001652
     48.050000     90.400212      2.002479
     48.100002     90.503642      2.002978
     48.150004     90.588184      2.004099
     48.200006     90.686244      2.005474
     48.250009     90.794030      2.006529
     48.300011     90.887375      2.007783
     48.350013     90.989697      2.008546
     48.400016     91.092773      2.009415
     48.449987     91.185541      2.010136
     48.499989     91.291616      2.010481
     48.549991     91.375487      2.010546
     48.599994     91.468670      2.010971
     48.649996     91.556808      2.011171
     48.699997     91.650171      2.011839
     48.750000     91.738470      2.014332
     48.800002     91.839301      2.021337
     48.850004     91.930660      2.028984
     48.900007     92.026311      2.036599
     48.950009     92.123994      2.043635
     49.000011     92.215570      2.050334
     49.050013     92.313858      2.056119
     49.100015     92.412694      2.061509
     49.149987     92.496153      2.066481
     49.199990     92.590797      2.071262
     49.249992     92.679029      2.075565
     49.299993     92.774307      2.079620
     49.349996     92.872875      2.083453
     49.399998     92.965858      2.086964
     49.449999     93.072127      2.090550
     49.500002     93.162885      2.093596
     49.550004     93.261658      2.096397
     49.600007     93.358489      2.098308
     49.650008     93.452960      2.100028
     49.700010     93.540426      2.101881
     49.750013     93.629522      2.103488
     49.800015     93.718863      2.104873
     49.849987     93.817581      2.106242
     49.899989     93.916804      2.107291
     49.949991     94.007935      2.108296
     49.999993     94.102771      2.109078
     50.049995     94.193616      2.110331
     50.099998     94.287584      2.111276
     50.150000     94.387414      2.111821
     50.200002     94.487638      2.112739
     50.250004     94.579670      2.113382
     50.300006     94.675316      2.114144
     50.350009     94.765060      2.114952
     50.400011     94.859258      2.115801
     50.450013     94.950750      2.116321
     50.500016     95.040416      2.116545
     50.549987     95.140648      2.116930
     50.599989     95.243674      2.117276
     50.649991     95.332125      2.117709
     50.699994     95.426990      2.118039
     50.749996     95.524576      2.118518
     50.799998     95.619117      2.119133
     50.850000     95.717632      2.119747
     50.900002     95.806906      2.120299
     50.950004     95.906784      2.120858
     51.000007     96.007050      2.120872
     51.050009     96.105224      2.121312
     51.100011     96.199075      2.121647
     51.150013     96.300630      2.122376
     51.200015     96.396912      2.122910
     51.249987     96.490281      2.123696
     51.299990     96.588961      2.124464
     51.349992     96.686928      2.125155
     51.399993     96.781813      2.125839
     51.449996     96.884300      2.126393
     51.499998     96.977758      2.126830
     51.550000     97.071636      2.127285
     51.600003     97.164062      2.127572
     51.650005     97.257010      2.128380
     51.700007     97.352871      2.128680
     51.750009     97.448912      2.129438
     51.800011     97.541452      2.129937
     51.850014     97.639997      2.130325
     51.900016     97.729298      2.130857
     51.949988     97.832862      2.131520
     51.999989     97.926071      2.132116
     52.049992     98.017893      2.132408
     52.099994     98.112129      2.132916
     52.149996     98.204267      2.133616
     52.199999     98.304280      2.134613
     52.250001     98.402838      2.135388
     52.300002     98.489098      2.136574
     52.350005     98.580160      2.137886
     52.400007     98.672492      2.140653
     52.450010     98.767798      2.143387
     52.500012     98.870053      2.146886
     52.550013     98.967576      2.150951
     52.600016     99.049853      2.155402
     52.649988     99.152590      2.160385
     52.699990     99.248105      2.164870
     52.749992     99.339561      2.169821
     52.799995     99.437742      2.174644
     52.849996     99.532818      2.179351
     52.899998     99.626931      2.183404
     52.950001     99.726282      2.187173
     53.000003     99.820581      2.190566
     53.050005     99.921930      2.193803
     53.100008    100.019857      2.196593
     53.150009    100.113486      2.199166
     53.200012    100.217282      2.201482
     53.250014    100.307038      2.203932
     53.299986    100.399414      2.205832
     53.349988    100.499032      2.208030
     53.399991    100.589910      2.209520
     53.449992    100.679634      2.211106
     53.499994    100.783580      2.212349
     53.549997    100.868586      2.213713
     53.599999    100.964012      2.214635
     53.650001    101.062714      2.215708
     53.700004    101.149714      2.216980
     53.750005    101.248156      2.218369
     53.800008    101.355065      2.219435
     53.850010    101.448842      2.220456
     53.900012    101.543006      2.221436
     53.950015    101.629585      2.222196
     53.999986    101.728869      2.222575
     54.049988    101.822497      2.223160
     54.099990    101.910425      2.223869
     54.149993    102.014584      2.224203
     54.199995    102.115652      2.224564
     54.249997    102.209665      2.225072
     54.299999    102.300990      2.225469
     54.350001    102.394170      2.226008
     54.400003    102.489018      2.226555
     54.450006    102.590861      2.227108
     54.500008    102.684961      2.227423
     54.550011    102.784300      2.228012
     54.600012    102.884691      2.227931
     54.650014    102.974433      2.228652
     54.699986    103.072291      2.228873
     54.750019    103.165856      2.229500
     54.799990    103.261662      2.229758
     54.849992    103.358873      2.229991
     54.899995    103.451247      2.230201
     54.949996    103.555135      2.230206
     54.999998    103.654127      2.231127
     55.050001    103.739559      2.232871
     55.100003    103.839640      2.238225
     55.150005    103.929104      2.246034
     55.200008    104.021217      2.253367
     55.250009    104.118158      2.259967
     55.300012    104.216391      2.265969
     55.350014    104.300529      2.271187
     55.399986    104.393342      2.275944
     55.449988    104.487861      2.279920
     55.499991    104.584525      2.283560
     55.549992    104.686171      2.287080
     55.599994    104.777042      2.290553
     55.649997    104.869202      2.294045
     55.699999    104.971067      2.297126
     55.750001    105.061525      2.300571
     55.800004    105.149652      2.303122
     55.850005    105.246055      2.305540
     55.900008    105.347467      2.307656
     55.950010    105.439959      2.310048
     56.000012    105.544564      2.312140
     56.050015    105.636877      2.314022
     56.099986    105.738880      2.315716
     56.149988    105.839228      2.316875
     56.199990    105.941139      2.318040
     56.249993    106.038961      2.319272
     56.299995    106.129443      2.320197
     56.349997    106.226136      2.321518
     56.399999    106.321704      2.322768
     56.450001    106.416871      2.324076
     56.500003    106.517780      2.324643
     56.550006    106.625079      2.325336
     56.600008    106.716764      2.325777
     56.650011    106.816981      2.326662
     56.700012    106.921826      2.327275
     56.750014    107.018627      2.328133
     56.799986    107.114293      2.328721
     56.849988    107.207717      2.329617
     56.899991    107.308278      2.330118
     56.949993    107.410380      2.330630
     56.999995    107.501662      2.330908
     57.049997    107.600905      2.331158
     57.099999    107.698769      2.331261
     57.150002    107.797223      2.331658
     57.200004    107.893156      2.332199
     57.250006    107.997806      2.332808
     57.300008    108.087109      2.333234
     57.350010    108.176026      2.333862
     57.400013    108.259714      2.334000
     57.450015    108.351512      2.334307
     57.499987    108.444507      2.334583
     57.549989    108.542241      2.334709
     57.599991    108.638746      2.334457
     57.649993    108.734757      2.334657
     57.699995    108.823607      2.335021
     57.749998    108.921884      2.335347
     57.800000    109.020098      2.335764
     57.850002    109.114595      2.336138
     57.900004    109.213070      2.336537
     57.950006    109.307801      2.336590
     58.000009    109.397332      2.336943
     58.050011    109.487065      2.337444
     58.100013    109.571486      2.337712
     58.150015    109.671270      2.338197
     58.199986    109.776945      2.338694
     58.249989    109.857403      2.338959
     58.299991    109.962165      2.339197
     58.349994    110.060113      2.339595
     58.399996    110.154370      2.339953
     58.449997    110.248966      2.340214
     58.500000    110.350583      2.340387
     58.550002    110.437766      2.340361
     58.600004    110.530879      2.340459
     58.650007    110.620784      2.340913
     58.700009    110.720010      2.341444
     58.750011    110.818468      2.342106
     58.800013    110.918067      2.342456
     58.850015    111.015031      2.342833
     58.899987    111.113895      2.343722
     58.949989    111.210807      2.344277
     58.999992    111.306573      2.345387
     59.049993    111.403139      2.346020
     59.099996    111.498593      2.346346
     59.149998    111.596099      2.346822
     59.200000    111.683243      2.347312
     59.250003    111.774491      2.350865
     59.300005    111.869432      2.355528
     59.350006    111.955489      2.360518
     59.400009    112.050640      2.365009
     59.450011    112.152756      2.368990
     59.500014    112.254427      2.373000
     59.550016    112.352644      2.376732
     59.599987    112.452026      2.379785
     59.649989    112.545132      2.382959
     59.699992    112.634421      2.385878
     59.749994    112.723326      2.388626
     59.799996    112.818599      2.391039
     59.849999    112.915942      2.393272
     59.900000    113.009044      2.395342
     59.950002    113.104433      2.397083
     60.000005    113.200048      2.399016
     60.050007    113.290985      2.400390
     60.100010    113.389308      2.402176
     60.150011    113.487564      2.402990
     60.200013    113.581488      2.404088
     60.250015    113.680668      2.404833
     60.299986    113.772982      2.405564
     60.349989    113.858506      2.406466
     60.399991    113.962944      2.406911
     60.449994    114.053887      2.407740
     60.499996    114.143059      2.408546
     60.549997    114.248949      2.409455
     60.600000    114.343030      2.410213
     60.650002    114.435027      2.410833
     60.700004    114.537966      2.412002
     60.750007    114.626949      2.412748
     60.800009    114.719241      2.413786
     60.850011    114.821224      2.414293
     60.900013    114.914841      2.415055
     60.950015    115.013745      2.416107
     60.999987    115.111913      2.416809
     61.049989    115.209421      2.418296
     61.099992    115.306943      2.419756
     61.149993    115.401427      2.421253
     61.199996    115.498670      2.422539
     61.249998    115.592902      2.424063
     61.300000    115.684425      2.425923
     61.350003    115.777172      2.427292
     61.400005    115.876514      2.429439
     61.450006    115.970194      2.432714
     61.500009    116.065493      2.437005
     61.550011    116.154924      2.441355
     61.600014    116.246398      2.445514
     61.650016    116.344594      2.449867
     61.699988    116.432360      2.453725
     61.749989    116.530271      2.457562
     61.799992    116.629377      2.461138
     61.849994    116.721014      2.464601
     61.899996    116.815695      2.467839
     61.949999    116.916166      2.470692
     62.000000    117.004149      2.473382
     62.050002    117.097983      2.475498
     62.100005    117.189147      2.477891
     62.150007    117.287064      2.480045
     62.200009    117.388617      2.481799
     62.250012    117.487339      2.483562
     62.300013    117.583513      2.484782
     62.350016    117.678005      2.486124
     62.399987    117.764878      2.487027
     62.449990    117.860155      2.488328
     62.499992    117.956890      2.489133
     62.549995    118.051276      2.489673
     62.599996    118.152703      2.491076
     62.649998    118.250701      2.495024
     62.700001    118.346224      2.502239
     62.750003    118.440739      2.509099
     62.800005    118.528245      2.516188
     62.850008    118.625311      2.521958
     62.900009    118.720605      2.527517
     62.950012    118.808811      2.532704
     63.000014    118.904676      2.537311
     63.049986    119.006824      2.541457
     63.099988    119.096315      2.545433
     63.149990    119.193338      2.548889
     63.199992    119.291034      2.552365
     63.249994    119.381402      2.555128
     63.299997    119.481654      2.557859
     63.349999    119.579816      2.559828
     63.400001    119.672434      2.561783
     63.450003    119.766777      2.563604
     63.500005    119.865724      2.565243
     63.550007    119.959659      2.566596
     63.600010    120.055798      2.567936
     63.650012    120.152698      2.569263
     63.700015    120.246013      2.570275
     63.750016    120.345865      2.571247
     63.799988    120.433901      2.572305
     63.849990    120.528392      2.573196
     63.899993    120.618927      2.573997
     63.949995    120.713227      2.574536
     63.999997    120.803590      2.575204
     64.049999    120.897123      2.575866
     64.100001    120.986797      2.576706
     64.150003    121.079711      2.577339
     64.200006    121.177371      2.578093
     64.250008    121.271369      2.578588
     64.300010    121.372447      2.578973
     64.350012    121.471352      2.579502
     64.400014    121.567690      2.580284
     64.449986    121.662330      2.580804
     64.499988    121.760933      2.581516
     64.549991    121.860053      2.582462
     64.599993    121.957805      2.583070
     64.649995    122.047613      2.584105
     64.699997    122.147362      2.585403
     64.749999    122.248122      2.586327
     64.800002    122.344300      2.587891
     64.850004    122.440625      2.588810
     64.900005    122.539525      2.590186
     64.950008    122.636470      2.591425
     65.000010    122.741421      2.592540
     65.050013    122.837708      2.593422
     65.100015    122.933521      2.594276
     65.149987    123.028909      2.595045
     65.199988    123.124523      2.595554
     65.249990    123.224005      2.596134
     65.299993    123.326965      2.596840
     65.349995    123.422072      2.597291
     65.399998    123.525978      2.598003
     65.449999    123.612780      2.598277
     65.500001    123.713485      2.598890
     65.550003    123.801068      2.599014
     65.600005    123.901865      2.599065
     65.650007    124.001738      2.599355
     65.700010    124.097117      2.599800
     65.750012    124.188452      2.600260
     65.800015    124.287743      2.600797
     65.850016    124.380767      2.601219
     65.899988    124.480358      2.601721
     65.949990    124.573042      2.601868
     65.999993    124.663782      2.601999
     66.049995    124.760096      2.602118
     66.099997    124.855324      2.602408
     66.149999    124.945302      2.602791
     66.200001    125.041541      2.602892
     66.250003    125.129987      2.603165
     66.300006    125.233393      2.603900
     66.350008    125.327678      2.604012
     66.400010    125.422912      2.604295
     66.450012    125.516556      2.604429
     66.500014    125.616706      2.605037
     66.549986    125.707451      2.605584
     66.599988    125.807432      2.605894
     66.649991    125.907792      2.606050
     66.699993    125.992012      2.606252
     66.749995    126.084900      2.607166
     66.799997    126.173992      2.607562
     66.849999    126.266382      2.607979
     66.900002    126.365403      2.607927
     66.950004    126.457573      2.608368
     67.000006    126.544189      2.608644
     67.050008    126.641064      2.608952
     67.100010    126.731914      2.609291
     67.150013    126.826496      2.609718
     67.200015    126.925049      2.610103
     67.249987    127.018018      2.610449
     67.299988    127.114508      2.611004
     67.349990    127.217219      2.611260
     67.399993    127.315151      2.611490
     67.449995    127.409394      2.611881
     67.499998    127.500316      2.612049
     67.550000    127.592523      2.612139
     67.600001    127.691988      2.612282
     67.650004    127.787610      2.612166
     67.700006    127.882216      2.612061
     67.750008    127.975295      2.612150
     67.800011    128.065170      2.612291
     67.850013    128.147889      2.612235
     67.900015    128.248581      2.612368
     67.949986    128.345918      2.612549
     67.999989    128.440846      2.612955
     68.049991    128.536657      2.612833
     68.099994    128.627770      2.612845
     68.149996    128.724420      2.613466
     68.199997    128.828495      2.613720
     68.250000    128.919721      2.614131
     68.300002    129.018915      2.614441
     68.350004    129.109410      2.614658
     68.400007    129.204894      2.614732
     68.450009    129.310361      2.614493
     68.500010    129.404671      2.614949
     68.550013    129.499926      2.614932
     68.600015    129.591760      2.614856
     68.649987    129.688448      2.615276
     68.699989    129.785843      2.615288
     68.749991    129.881434      2.615360
     68.799993    129.981504      2.615668
     68.849996    130.077060      2.615824
     68.899998    130.174047      2.615842
     68.950000    130.274153      2.616652
     69.000003    130.367910      2.620249
     69.050004    130.469993      2.626111
     69.100006    130.567360      2.632669
     69.150009    130.660484      2.639303
     69.200011    130.756502      2.645335
     69.250014    130.853905      2.650825
     69.300016    130.948282      2.655827
     69.349987    131.042377      2.660085
     69.399989    131.143542      2.664100
     69.449991    131.237642      2.667896
     69.499994    131.330877      2.671435
     69.549996    131.429438      2.674437
     69.599999    131.526687      2.677139
     69.650000    131.621536      2.679876
     69.700002    131.722159      2.682278
     69.750005    131.805395      2.684561
     69.800007    131.893736      2.686312
     69.850009    131.986060      2.688131
     69.900012    132.079528      2.689525
     69.950013    132.178297      2.691328
     70.000016    132.273294      2.692707
     70.049987    132.370998      2.694131
     70.099990    132.472359      2.695596
     70.149992    132.564805      2.696853
     70.199994    132.660824      2.698046
     70.249996    132.762500      2.699058
     70.299998    132.852788      2.700274
     70.350001    132.954800      2.701308
     70.400003    133.049661      2.701994
     70.450005    133.140531      2.702733
     70.500007    133.236351      2.703521
     70.550009    133.334186      2.704230
     70.600011    133.438107      2.704807
     70.650014    133.537130      2.705204
     70.699986    133.632963      2.705439
     70.749988    133.728369      2.706079
     70.799989    133.827052      2.706715
     70.849992    133.913426      2.707226
     70.899993    134.003979      2.707321
     70.949996    134.089750      2.707833
     70.999998    134.190748      2.708416
     71.050000    134.287139      2.709123
     71.100003    134.383046      2.709333
     71.150004    134.474856      2.709766
     71.200006    134.575186      2.709789
     71.250009    134.672196      2.710115
     71.300011    134.768661      2.710592
     71.350014    134.865245      2.711143
     71.400016    134.964988      2.711456
     71.449987    135.061471      2.711982
     71.499989    135.150137      2.712089
     71.549991    135.248247      2.712185
     71.599994    135.333494      2.712211
     71.649996    135.437683      2.712539
     71.699999    135.538166      2.712956
     71.750000    135.634095      2.713271
     71.800002    135.728366      2.713737
     71.850005    135.826027      2.714157
     71.900007    135.917584      2.714535
     71.950009    136.022568      2.715485
     72.000012    136.115224      2.716096
     72.050013    136.213872      2.716707
     72.100016    136.316084      2.716891
     72.149987    136.414178      2.717484
     72.199990    136.508567      2.718322
     72.249992    136.601451      2.719016
     72.299994    136.688709      2.719762
     72.349996    136.783110      2.720800
     72.399998    136.880889      2.721490
     72.450001    136.971332      2.721867
     72.500003    137.066158      2.722511
     72.550005    137.168592      2.723274
     72.600007    137.265054      2.723839
     72.650009    137.357364      2.724713
     72.700011    137.453261      2.726538
     72.750014    137.545061      2.730438
     72.799986    137.641719      2.737733
     72.849988    137.738477      2.746618
     72.899989    137.834105      2.755163
     72.949992    137.922611      2.762976
     72.999994    138.020577      2.770435
     73.049997    138.109357      2.777026
     73.099999    138.203298      2.783446
     73.150001    138.304934      2.788858
     73.200003    138.396407      2.793729
     73.250005    138.488498      2.798356
     73.300007    138.581757      2.802216
     73.350010    138.671793      2.805934
     73.400012    138.774188      2.809280
     73.450015    138.866954      2.812658
     73.500016    138.965092      2.815637
     73.549988    139.057078      2.818135
     73.599990    139.144749      2.820566
     73.649992    139.236470      2.822632
     73.699995    139.328785      2.824309
     73.749997    139.425907      2.825879
     73.799999    139.523082      2.827230
     73.850001    139.624578      2.828630
     73.900003    139.722028      2.829585
     73.950006    139.818278      2.830993
     74.000008    139.906734      2.831833
     74.050010    140.008928      2.833139
     74.100012    140.098461      2.834192
     74.150014    140.190027      2.835078
     74.199986    140.287696      2.836121
     74.249988    140.384753      2.837120
     74.299991    140.482481      2.838263
     74.349992    140.577150      2.839170
     74.399994    140.675779      2.839619
     74.449997    140.774312      2.840391
     74.499999    140.869095      2.840901
     74.550002    140.959893      2.841178
     74.600004    141.056260      2.841732
     74.650005    141.158859      2.842597
     74.700008    141.248757      2.843254
     74.750010    141.341873      2.843601
     74.800012    141.440326      2.844218
     74.850015    141.535647      2.844529
     74.899987    141.629981      2.844809
     74.949988    141.730751      2.845183
     74.999990    141.831210      2.845398
     75.049993    141.917961      2.845836
     75.099995    142.007634      2.846229
     75.149998    142.105430      2.846522
     75.200000    142.200770      2.846908
     75.250001    142.293290      2.847256
     75.300004    142.395479      2.847691
     75.350006    142.495995      2.847777
     75.400008    142.598666      2.848037
     75.450011    142.699005      2.848150
     75.500013    142.794803      2.848190
     75.550014    142.881632      2.848165
     75.599986    142.981140      2.848387
     75.649989    143.074970      2.848525
     75.699991    143.169793      2.848711
     75.749993    143.258186      2.848634
     75.799995    143.342622      2.848809
     75.849997    143.438757      2.848905
     75.900000    143.539317      2.849236
     75.950002    143.629820      2.849351
     76.000004    143.729584      2.849515
     76.050007    143.824865      2.849724
     76.100008    143.920994      2.849668
     76.150010    144.017276      2.849739
     76.200012    144.117967      2.849864
     76.250014    144.205538      2.849855
     76.299986    144.309377      2.850396
     76.349988    144.402832      2.850700
     76.399991    144.499148      2.851157
     76.449992    144.596209      2.851445
     76.499994    144.690278      2.851644
     76.549997    144.785926      2.851823
     76.599999    144.886048      2.851862
     76.650002    144.984093      2.852020
     76.700004    145.071722      2.852222
     76.750005    145.165848      2.852221
     76.800008    145.263379      2.852465
     76.850010    145.355429      2.852806
     76.900012    145.448650      2.852930
     76.950015    145.541094      2.852980
     76.999987    145.635281      2.853392
     77.049988    145.732255      2.853213
     77.099990    145.830519      2.853418
     77.149993    145.925671      2.853176
     77.199995    146.014969      2.853385
     77.249998    146.107545      2.853451
     77.300000    146.200629      2.853754
     77.350001    146.296002      2.854088
     77.400004    146.388551      2.854572
     77.450006    146.482832      2.854947
     77.500008    146.576840      2.855223
     77.550011    146.669992      2.855654
     77.600013    146.758712      2.856470
     77.650014    146.862974      2.857326
     77.699986    146.965966      2.858097
     77.749989    147.062321      2.858729
     77.799991    147.160637      2.859848
     77.849993    147.257666      2.860610
     77.899996    147.351707      2.860930
     77.949997    147.447330      2.861340
     78.000000    147.538273      2.862259
     78.050002    147.639654      2.863207
     78.100004    147.743714      2.864183
     78.150007    147.832485      2.864939
     78.200008    147.925197      2.866108
     78.250010    148.023897      2.866794
     78.300013    148.121882      2.867838
     78.350015    148.219224      2.868717
     78.399987    148.329415      2.869386
     78.449989    148.423704      2.869866
     78.499991    148.523213      2.870359
     78.549993    148.624978      2.871536
     78.599995    148.724501      2.874303
     78.649998    148.828721      2.878991
     78.700000    148.918246      2.885225
     78.750003    149.012857      2.891567
     78.800004    149.113266      2.897886
     78.850006    149.208517      2.903451
     78.900009    149.304009      2.908581
     78.950011    149.396665      2.913321
     79.000013    149.481887      2.917403
     79.050016    149.578118      2.921199
     79.099987    149.668388      2.924494
     79.149989    149.769163      2.927825
     79.199991    149.862912      2.930823
     79.249994    149.955832      2.933582
     79.299996    150.048004      2.936188
     79.349999    150.138894      2.937739
     79.400000    150.235954      2.939990
     79.450002    150.336735      2.941833
     79.500005    150.425608      2.943735
     79.550007    150.517190      2.945142
     79.600009    150.608769      2.946348
     79.650011    150.709502      2.947555
     79.700013    150.800771      2.948702
     79.750015    150.893290      2.950162
     79.799987    150.980219      2.951353
     79.849990    151.075545      2.952609
     79.899992    151.174156      2.953678
     79.949993    151.271451      2.954701
     79.999996    151.360847      2.955561
     80.049998    151.460225      2.956335
     80.100001    151.549666      2.957214
     80.150003    151.652135      2.957823
     80.200005    151.741306      2.958615
     80.250007    151.836208      2.959388
     80.300009    151.931385      2.960268
     80.350011    152.023759      2.960754
     80.400014    152.121544      2.961497
     80.449986    152.216875      2.962348
     80.499988    152.313660      2.963115
     80.549989    152.412973      2.963866
     80.599992    152.513341      2.964542
     80.649994    152.606725      2.964967
     80.699996    152.706029      2.965288
     80.749999    152.803947      2.965578
     80.800001    152.898788      2.966082
     80.850003    152.998793      2.966353
     80.900005    153.096733      2.966902
     80.950007    153.184879      2.967397
     81.000010    153.282520      2.967902
     81.050012    153.372839      2.969151
     81.100014    153.465113      2.972533
     81.150016    153.559756      2.979361
     81.199988    153.657753      2.986361
     81.249990    153.757546      2.993027
     81.299992    153.851633      2.999393
     81.349995    153.943025      3.004939
     81.399996    154.038096      3.010175
     81.449999    154.135866      3.014398
     81.500000    154.228132      3.018688
     81.550002    154.328262      3.022854
     81.600005    154.424482      3.026420
     81.650007    154.514743      3.029508
     81.700009    154.604522      3.032347
     81.750012    154.704855      3.035208
     81.800013    154.799427      3.037173
     81.850015    154.895529      3.039551
     81.899987    154.994227      3.041509
     81.949990    155.092822      3.043759
     81.999992    155.188271      3.045906
     82.049993    155.289434      3.047594
     82.099996    155.387195      3.049358
     82.149998    155.486166      3.050640
     82.200001    155.575240      3.051793
     82.250003    155.668835      3.052893
     82.300005    155.759173      3.054005
     82.350007    155.855737      3.055188
     82.400009    155.950579      3.056070
     82.450011    156.048755      3.056986
     82.500014    156.148710      3.057810
     82.549986    156.239890      3.058735
     82.599988    156.340263      3.059446
     82.649989    156.440975      3.060024
     82.699992    156.538940      3.060362
     82.749994    156.635043      3.060726
     82.799996    156.725198      3.061421
     82.849999    156.816103      3.061802
     82.900001    156.908294      3.062084
     82.950003    157.004693      3.062215
     83.000005    157.094505      3.062761
     83.050007    157.197919      3.063313
     83.100010    157.298315      3.063687
     83.150012    157.388062      3.064147
     83.200014    157.484704      3.064316
     83.250016    157.581447      3.064530
     83.299988    157.673398      3.064783
     83.349990    157.770193      3.065621
     83.399992    157.870736      3.065704
     83.449995    157.970380      3.065840
     83.499996    158.067995      3.065901
     83.549998    158.149134      3.065711
     83.600001    158.250236      3.065785
     83.650003    158.344279      3.066035
     83.700006    158.433191      3.066626
     83.750008    158.527250      3.066974
     83.800009    158.625331      3.067044
     83.850012    158.708720      3.067351
     83.900014    158.808186      3.067261
     83.949986    158.899536      3.067546
     83.999988    158.986023      3.067925
     84.049991    159.085224      3.069425
     84.099992    159.184882      3.071264
     84.149994    159.279456      3.072980
     84.199997    159.371287      3.074707
     84.249999    159.467363      3.076506
     84.300002    159.573363      3.077881
     84.350004    159.668762      3.079424
     84.400005    159.766829      3.080629
     84.450008    159.868518      3.081652
     84.500010    159.963699      3.082635
     84.550012    160.060349      3.083580
     84.600015    160.156490      3.084369
     84.649987    160.255223      3.085019
     84.699988    160.359342      3.085542
     84.749990    160.456712      3.086380
     84.799993    160.546786      3.087195
     84.849995    160.649215      3.088050
     84.899997    160.752388      3.088453
     84.950000    160.847685      3.089305
     85.000001    160.941997      3.090010
     85.050004    161.044579      3.090340
     85.100006    161.138733      3.090697
     85.150008    161.243614      3.091447
     85.200011    161.335565      3.092487
     85.250012    161.431750      3.093057
     85.300014    161.531133      3.093387
     85.349986    161.624240      3.093868
     85.399989    161.723906      3.094239
     85.449991    161.817267      3.095244
     85.499993    161.907396      3.095661
     85.549995    162.001330      3.096585
     85.599997    162.093194      3.096806
     85.649999    162.186859      3.097250
     85.700002    162.282754      3.097771
     85.750004    162.365397      3.098240
     85.800007    162.470294      3.098845
     85.850008    162.570805      3.099268
     85.900010    162.657603      3.099954
     85.950013    162.744876      3.100571
     86.000015    162.846006      3.100638
     86.049987    162.932749      3.101308
     86.099989    163.027299      3.101668
     86.149991    163.128873      3.101808
     86.199993    163.225172      3.101751
     86.249995    163.326491      3.102250
     86.299998    163.412794      3.102210
     86.350000    163.502064      3.102723
     86.400003    163.600718      3.103185
     86.450004    163.693169      3.103723
     86.500006    163.796516      3.104208
     86.550009    163.896853      3.104521
     86.600011    163.985936      3.105170
     86.650013    164.081369      3.105631
     86.700015    164.180077      3.105864
     86.749987    164.267693      3.106012
     86.799988    164.361807      3.106328
     86.849990    164.456885      3.106918
     86.899993    164.555273      3.107144
     86.949995    164.651757      3.107469
     86.999997    164.744696      3.108006
     87.050000    164.837497      3.108428
     87.100001    164.936887      3.108869
     87.150004    165.023286      3.109510
     87.200006    165.126070      3.110209
     87.250008    165.225290      3.110716
     87.300011    165.320081      3.111294
     87.350012    165.415769      3.111632
     87.400014    165.515316      3.112058
     87.449986    165.613453      3.112319
     87.499989    165.713984      3.112615
     87.549991    165.810565      3.112942
     87.599993    165.915800      3.112993
     87.649995    166.012952      3.113038
     87.699997    166.100999      3.113018
     87.749999    166.199163      3.112878
     87.800002    166.300328      3.113485
     87.850004    166.395649      3.113664
     87.900007    166.492424      3.114253
     87.950008    166.591729      3.115332
     88.000010    166.687818      3.118317
     88.050013    166.784063      3.122286
     88.100015    166.876177      3.126468
     88.149987    166.971898      3.130660
     88.199989    167.063539      3.134554
     88.249991    167.148458      3.138059
     88.299993    167.248689      3.141640
     88.349995    167.351104      3.144253
     88.399998    167.445719      3.146605
     88.450000    167.549794      3.148660
     88.500003    167.641630      3.150754
     88.550004    167.731607      3.152517
     88.600006    167.832118      3.154348
     88.650009    167.925629      3.155812
     88.700011    168.021997      3.157313
     88.750013    168.118493      3.158725
     88.800016    168.219378      3.160179
     88.849987    168.321772      3.161365
     88.899989    168.416978      3.162860
     88.949991    168.508157      3.163961
     88.999994    168.604866      3.164953
     89.049996    168.700450      3.165784
     89.099997    168.798072      3.166837
     89.150000    168.900580      3.167663
     89.200002    168.990396      3.168467
     89.250005    169.076114      3.169557
     89.300007    169.174622      3.170172
     89.350009    169.261449      3.170603
     89.400011    169.365228      3.171052
     89.450013    169.464122      3.171395
     89.500015    169.556179      3.172315
     89.549987    169.639030      3.172532
     89.599990    169.742283      3.172666
     89.649992    169.837652      3.173336
     89.699993    169.927146      3.173939
     89.749996    170.025391      3.174787
     89.799998    170.119916      3.175367
     89.850000    170.222078      3.175889
     89.900003    170.320738      3.176542
     89.950005    170.413804      3.177313
     90.000007    170.514654      3.178007
     90.050009    170.617015      3.178082
     90.100011    170.714634      3.178515
     90.150014    170.812257      3.178845
     90.199986    170.907442      3.179141
     90.249988    171.005926      3.179408
     90.299989    171.107379      3.179953
     90.349992    171.197466      3.180383
     90.399994    171.293193      3.181258
     90.449996    171.380568      3.181557
     90.499999    171.464088      3.181948
     90.550000    171.553295      3.181751
     90.600003    171.639684      3.182245
     90.650005    171.733915      3.182507
     90.700007    171.829708      3.182803
     90.750010    171.918975      3.182887
     90.800012    172.017625      3.182901
     90.850013    172.122280      3.183280
     90.900016    172.214638      3.183743
     90.949988    172.313630      3.184282
     90.999990    172.413099      3.184889
     91.049992    172.507503      3.185741
     91.099995    172.604675      3.186935
     91.149996    172.704337      3.187826
     91.199998    172.800746      3.188811
     91.250001    172.904604      3.190247
     91.300003    172.995636      3.191967
     91.350006    173.094654      3.193637
     91.400008    173.188043      3.195506
     91.450009    173.283690      3.197798
     91.500012    173.382590      3.199861
     91.550014    173.484417      3.202084
     91.599986    173.583386      3.204634
     91.649988    173.691379      3.206808
     91.699991    173.780028      3.209129
     91.749992    173.886668      3.210853
     91.799994    173.990579      3.212892
     91.849997    174.085319      3.214789
     91.899999    174.187065      3.216862
     91.950001    174.292064      3.218545
     92.000004    174.388394      3.220242
     92.050005    174.484247      3.222197
     92.100008    174.582112      3.223652
     92.150009    174.678124      3.224839
     92.200011    174.778574      3.225785
     92.250014    174.872031      3.226880
     92.299986    174.962245      3.227378
     92.349988    175.055645      3.227704
     92.399989    175.143368      3.228608
     92.449992    175.240018      3.229238
     92.499994    175.336159      3.229744
     92.549996    175.424517      3.230261
     92.599999    175.519909      3.230787
     92.650001    175.619189      3.231504
     92.700003    175.716476      3.231967
     92.750005    175.813190      3.232444
     92.800007    175.899011      3.232813
     92.850010    175.995782      3.233511
     92.900012    176.096304      3.234322
     92.950013    176.183112      3.234991
     93.000016    176.277108      3.235716
     93.049988    176.378794      3.236245
     93.099990    176.474585      3.237149
     93.149992    176.576055      3.238390
     93.199995    176.680807      3.238897
     93.249996    176.772641      3.239719
     93.299998    176.866890      3.240092
     93.350001    176.954154      3.240429
     93.400003    177.044900      3.240914
     93.450006    177.147323      3.241352
     93.500008    177.246828      3.241867
     93.550009    177.341876      3.242209
     93.600012    177.447561      3.242761
     93.650014    177.539626      3.243258
     93.699986    177.636523      3.243705
     93.749988    177.732275      3.244046
     93.799991    177.826997      3.244536
     93.849992    177.932388      3.244855
     93.899994    178.022358      3.245142
     93.949997    178.115537      3.245645
     93.999999    178.210386      3.246036
     94.050001    178.302463      3.246511
     94.100004    178.394488      3.246632
     94.150005    178.497453      3.246742
     94.200008    178.584628      3.247329
     94.250010    178.682006      3.247613
     94.300012    178.778192      3.247746
     94.350015    178.869642      3.248294
     94.399986    178.962933      3.248542
     94.449988    179.064596      3.248949
     94.499990    179.158534      3.249315
     94.549993    179.260169      3.249645
     94.599995    179.354691      3.249758
     94.649997    179.451358      3.249921
     94.699999    179.548125      3.250190
     94.750001    179.641318      3.250493
     94.800004    179.733737      3.251071
     94.850006    179.838887      3.251530
     94.900008    179.940236      3.252005
     94.950011    180.038164      3.252676
     95.000012    180.140948      3.253218
     95.050014    180.234064      3.254195
     95.099986    180.329466      3.255074
     95.149989    180.426313      3.256171
     95.199991    180.528125      3.257035
     95.249993    180.627079      3.257753
     95.299995    180.719190      3.258581
     95.349997    180.816739      3.259693
     95.399999    180.919792      3.260938
     95.450002    181.011929      3.262669
     95.500004    181.106449      3.264471
     95.550007    181.201283      3.266947
     95.600008    181.290906      3.270884
     95.650010    181.386826      3.275649
     95.700013    181.491464      3.279754
     95.750015    181.591743      3.283936
     95.799987    181.686266      3.287823
     95.849988    181.782323      3.291565
     95.899991    181.876710      3.295055
     95.949993    181.972644      3.298074
     95.999995    182.063867      3.301157
     96.049998    182.161838      3.303993
     96.100000    182.257336      3.306667
     96.150001    182.354881      3.309318
     96.200004    182.454878      3.311399
     96.250006    182.553421      3.313821
     96.300009    182.650655      3.315696
     96.350011    182.745490      3.317749
     96.400013    182.833282      3.319475
     96.450015    182.926944      3.320662
     96.499987    183.021006      3.321975
     96.549989    183.119089      3.322912
     96.599991    183.214689      3.323939
     96.649994    183.320870      3.324680
     96.699996    183.407888      3.325835
     96.749997    183.508788      3.327179
     96.800000    183.609364      3.327718
     96.850002    183.702323      3.328752
     96.900004    183.796363      3.329561
     96.950007    183.892595      3.330411
     97.000009    183.982256      3.331054
     97.050011    184.087365      3.331633
     97.100013    184.184405      3.332398
     97.150015    184.284559      3.333025
     97.199987    184.380190      3.333712
     97.249990    184.470531      3.334513
     97.299992    184.564045      3.335112
     97.349993    184.659804      3.335834
     97.399996    184.752702      3.336118
     97.449998    184.852179      3.336617
     97.499999    184.948422      3.336884
     97.550002    185.047248      3.337184
     97.600004    185.141685      3.337272
     97.650007    185.230951      3.337534
     97.700008    185.331432      3.337831
     97.750010    185.424916      3.338281
     97.800013    185.522481      3.338320
     97.850015    185.625547      3.338783
     97.899987    185.725632      3.339809
     97.949989    185.815708      3.342137
     97.999991    185.914477      3.345574
     98.049993    186.010083      3.350438
     98.099995    186.105894      3.355060
     98.149998    186.211655      3.359342
     98.200000    186.301347      3.363806
     98.250001    186.401602      3.367640
     98.300004    186.509531      3.371335
     98.350006    186.602395      3.374844
     98.400009    186.701232      3.377818
     98.450011    186.799340      3.380740
     98.500013    186.893742      3.383125
     98.550015    186.993962      3.385637
     98.599987    187.093315      3.387777
     98.649989    187.195551      3.389885
     98.699991    187.293056      3.391234
     98.749994    187.389356      3.392569
     98.799996    187.485792      3.394443
     98.849997    187.581739      3.396007
     98.900000    187.682130      3.397659
     98.950002    187.784079      3.399084
     99.000004    187.880106      3.400184
     99.050007    187.974464      3.401174
     99.100009    188.067932      3.402187
     99.150011    188.170974      3.403099
     99.200013    188.262491      3.403797
     99.250015    188.352181      3.404060
     99.299987    188.440226      3.404235
     99.349990    188.542050      3.405003
     99.399992    188.644068      3.405389
     99.449993    188.740767      3.406102
     99.499996    188.829627      3.406745
     99.549998    188.927912      3.407079
     99.600000    189.028575      3.407623
     99.650003    189.122224      3.407869
     99.700004    189.221768      3.408518
     99.750007    189.319291      3.409163
     99.800009    189.411945      3.409987
     99.850011    189.509372      3.410668
     99.900014    189.602550      3.411159
     99.950016    189.696175      3.411540
     99.999987    189.784711      3.412127
    100.049989    189.888197      3.412594
    100.099992    189.986217      3.412831
    100.149994    190.082370      3.413106
    100.199996    190.182336      3.413658
    100.249999    190.285122      3.414094
    100.300000    190.374578      3.414547
    100.350002    190.452037      3.414894
    100.400005    190.526633      3.415390
    100.450007    190.592548      3.415653
    100.500010    190.650652      3.416256
    100.550012    190.705996      3.416310
    100.600013    190.747261      3.416297
    100.650016    190.795997      3.416470
    100.699988    190.839859      3.416502
    100.749990    190.865907      3.416654
    100.799992    190.900947      3.416851
    100.849995    190.923937      3.416663
    100.899996    190.948902      3.416859
    100.949998    190.967707      3.417097
    101.000001    190.987684      3.417067
    101.050003    191.005053      3.417224
    101.100005    191.020075      3.417547
    101.150008    191.031153      3.418021
    101.200009    191.044175      3.418570
    101.250012    191.050401      3.418820
    101.300014    191.070654      3.419045
    101.349986    191.078505      3.419126
    101.399988    191.089233      3.419137
    101.449990    191.102551      3.419452
    101.499992    191.112095      3.419797
    101.549994    191.120075      3.419925
    101.599997    191.126036      3.419551
    101.649999    191.127738      3.419642
    101.700001    191.133543      3.419540
    101.750003    191.135106      3.419571
    101.800005    191.139563      3.419843
    101.850008    191.140524      3.420149
    101.900010    191.146881      3.420485
    101.950012    191.158096      3.420605
    102.000015    191.164527      3.420712
    102.050016    191.161771      3.420992
    102.099988    191.166614      3.421244
    102.149990    191.170972      3.421532
    102.199993    191.168181      3.421547
    102.249995    191.176656      3.421499
    102.299997    191.177569      3.421639
    102.349999    191.172287      3.421704
    102.400001    191.157158      3.421702
    102.450003    191.139879      3.421761
    102.500006    191.115172      3.421814
    102.550008    191.081340      3.421984
    102.600011    191.033190      3.421770
    102.650012    190.988634      3.421578
    102.700014    190.933885      3.421466
    102.749986    190.874846      3.421121
    102.799989    190.818048      3.421238
    102.849990    190.754112      3.421344
    102.899992    190.685584      3.421438
    102.949995    190.622077      3.421707
    102.999996    190.553935      3.422192
    103.049998    190.480399      3.422507
    103.100001    190.397737      3.422608
    103.150003    190.320900      3.423308
    103.200005    190.249916      3.423451
    103.250008    190.161616      3.423518
    103.300009    190.077873      3.423761
    103.350012    189.990297      3.423736
    103.400014    189.904765      3.423714
    103.449986    189.816799      3.423450
    103.499988    189.726033      3.423639
    103.549990    189.632747      3.423626
    103.599992    189.551231      3.423798
    103.649994    189.457725      3.424074
    103.699997    189.366855      3.424262
    103.749999    189.275917      3.424492
    103.800001    189.185528      3.424394
    103.850003    189.087087      3.424733
    103.900005    188.997270      3.424550
    103.950008    188.901786      3.424324
    104.000010    188.797540      3.424365
    104.050012    188.703718      3.424341
    104.100015    188.605240      3.424685
    104.150016    188.511727      3.424629
    104.199988    188.420240      3.424456
    104.249990    188.326306      3.424606
    104.299993    188.231389      3.424862
    104.349995    188.141691      3.425155
    104.399997    188.038990      3.425295
    104.449999    187.950832      3.425544
    104.500001    187.853178      3.425707
    104.550003    187.759797      3.425549
    104.600006    187.663547      3.425406
    104.650008    187.567766      3.425339
    104.700011    187.473018      3.425644
    104.750012    187.386524      3.425492
    104.800014    187.284265      3.425416
    104.849986    187.190402      3.425653
    104.899988    187.089444      3.425439
    104.949991    186.988817      3.425917
    104.999993    186.898252      3.426226
    105.049995    186.802706      3.426443
    105.099997    186.695962      3.426394
    105.149999    186.609047      3.426289
    105.200002    186.513734      3.426499
    105.250004    186.426732      3.426811
    105.300005    186.331340      3.426969
    105.350008    186.244266      3.427173
    105.400010    186.154303      3.427051
    105.450013    186.063570      3.426941
    105.500015    185.955665      3.426720
    105.549987    185.854889      3.426643
    105.599988    185.758086      3.426757
    105.649991    185.652653      3.426982
    105.699993    185.551049      3.427123
    105.749995    185.455333      3.427006
    105.799998    185.361865      3.427328
    105.850000    185.263094      3.427435
    105.900001    185.166266      3.427836
    105.950004    185.069965      3.428136
    106.000006    184.972919      3.428040
    106.050009    184.866655      3.428258
    106.100011    184.775901      3.428211
    106.150013    184.677743      3.428351
    106.200015    184.584517      3.428478
