Shimadzu measurement
Filename
754Labor_aprilis_14_125Mg.dat
Identifier
2mN/s meres
Date 2016:4:14
Time 10:52
Indentsize=0 [æm]
 Time [s]         Load [mN]       Displ [æm] 
*****************************************************************

      0.050002      0.005886     -0.002368
      0.100003     -0.015062     -0.003401
      0.150006     -0.011942     -0.003660
      0.200008     -0.010965     -0.001450
      0.249980      0.099779      0.002003
      0.299982      0.265367      0.005232
      0.349985      0.518769      0.009238
      0.399986      0.837163      0.015589
      0.449988      1.213442      0.023198
      0.499991      1.641815      0.034562
      0.549993      2.135996      0.050283
      0.599995      2.676585      0.068461
      0.649998      3.252838      0.089337
      0.699999      3.870954      0.110933
      0.750002      4.521255      0.135741
      0.800004      5.198690      0.162951
      0.850006      5.907870      0.191469
      0.900009      6.640739      0.220613
      0.949981      7.401640      0.249285
      0.999982      8.178616      0.277531
      1.049984      8.971889      0.305821
      1.099987      9.782273      0.335249
      1.149989     10.603782      0.364604
      1.199991     11.438357      0.394440
      1.249993     12.287742      0.425200
      1.299995     13.155340      0.455935
      1.349997     14.027122      0.486954
      1.400000     14.896566      0.517740
      1.450002     15.785879      0.548682
      1.500005     16.677204      0.578666
      1.550006     17.569119      0.608398
      1.600008     18.479877      0.638514
      1.649980     19.385010      0.667755
      1.699983     20.293625      0.697245
      1.749985     21.218802      0.726106
      1.799987     22.143016      0.754522
      1.849989     23.079179      0.783270
      1.899991     24.002905      0.811830
      1.949993     24.933136      0.840524
      1.999996     25.863119      0.868912
      2.049998     26.799593      0.896902
      2.100001     27.741908      0.924108
      2.150002     28.678494      0.950608
      2.200004     29.613586      0.976533
      2.250007     30.561371      1.002428
      2.300009     31.507763      1.028237
      2.349981     32.440694      1.054028
      2.399983     33.396300      1.079255
      2.449985     34.338745      1.104644
      2.499987     35.283382      1.129814
      2.549989     36.238537      1.154359
      2.599992     37.185458      1.178647
      2.649994     38.134125      1.202520
      2.699995     39.089855      1.225837
      2.749998     40.040955      1.249569
      2.800000     40.978734      1.272880
      2.850003     41.923445      1.295753
      2.900005     42.879887      1.318475
      2.950007     43.834071      1.340939
      3.000009     44.782559      1.363842
      3.049981     45.738128      1.386529
      3.099983     46.688474      1.408963
      3.149985     47.646937      1.430801
      3.199988     48.609042      1.451981
      3.249990     49.553062      1.473301
      3.299991     50.505832      1.494504
      3.349994     51.458541      1.515722
      3.399996     52.410585      1.536711
      3.449998     53.360199      1.557005
      3.500001     54.318003      1.577283
      3.550003     55.268529      1.597670
      3.600005     56.222270      1.618155
      3.650007     57.169140      1.639094
      3.699979     58.126305      1.659769
      3.749981     59.089073      1.679781
      3.799984     60.039184      1.699379
      3.849986     60.993772      1.718543
      3.899987     61.951170      1.738293
      3.949990     62.913537      1.758082
      3.999992     63.863898      1.777296
      4.049994     64.811387      1.795993
      4.099997     65.763006      1.814895
      4.149999     66.716510      1.834104
      4.200001     67.671711      1.854200
      4.250003     68.631491      1.874423
      4.300005     69.582575      1.894454
      4.350008     70.542922      1.914191
      4.399979     71.488412      1.933420
      4.449981     72.437622      1.952617
      4.499983     73.396282      1.972337
      4.549986     74.343916      1.991793
      4.599987     75.302379      2.011135
      4.649989     76.248616      2.030252
      4.699992     77.204600      2.049288
      4.749994     78.163254      2.067824
      4.799996     79.112104      2.085667
      4.849998     80.069830      2.102457
      4.900000     81.028831      2.118606
      4.950003     81.984706      2.135521
      5.000005     82.942042      2.152514
      5.050007     83.897639      2.170066
      5.100009     84.844348      2.187817
      5.149981     85.803810      2.205440
      5.199983     86.754607      2.222949
      5.249985     87.711034      2.240232
      5.299988     88.657879      2.257497
      5.349990     89.613801      2.275293
      5.399991     90.566295      2.293690
      5.449994     91.527911      2.312872
      5.499996     92.482479      2.331723
      5.549998     93.439247      2.349543
      5.600001     94.388231      2.366191
      5.650003     95.350350      2.381724
      5.700005     96.301097      2.396559
      5.750007     97.259921      2.410886
      5.799979     98.216247      2.425795
      5.849981     99.167885      2.440433
      5.899984    100.125068      2.454951
      5.949986    101.078088      2.469176
      5.999987    102.026138      2.483444
      6.049990    102.980704      2.497872
      6.099992    103.938691      2.513238
      6.149994    104.897317      2.529020
      6.199997    105.852245      2.544200
      6.249999    106.807506      2.558778
      6.300001    107.767951      2.573363
      6.350003    108.723295      2.588260
      6.400005    109.677711      2.603132
      6.450008    110.641057      2.617737
      6.499979    111.590467      2.632225
      6.549981    112.550528      2.646668
      6.599983    113.507969      2.661375
      6.649986    114.461830      2.676443
      6.699988    115.413690      2.691591
      6.749990    116.371684      2.706445
      6.799993    117.327874      2.721095
      6.849994    118.286103      2.735379
      6.899996    119.242504      2.749760
      6.949999    120.202144      2.764168
      7.000001    121.165309      2.779333
      7.050004    122.121880      2.794324
      7.100006    123.086555      2.809219
      7.150007    124.034110      2.823785
      7.199979    125.001047      2.838664
      7.249982    125.952468      2.853154
      7.299984    126.908847      2.867355
      7.349986    127.868465      2.881600
      7.399989    128.821845      2.895886
      7.449990    129.773273      2.910514
      7.499992    130.729046      2.924716
      7.549995    131.682627      2.938962
      7.599997    132.639118      2.952944
      7.649999    133.587242      2.966321
      7.700002    134.541873      2.979948
      7.750003    135.496868      2.993920
      7.800006    136.447918      3.008510
      7.850008    137.394806      3.024082
      7.899980    138.348325      3.039623
      7.949982    139.304150      3.054464
      7.999985    140.257778      3.068676
      8.049986    141.211870      3.082504
      8.099988    142.164548      3.096719
      8.149991    143.123278      3.111161
      8.199993    144.085624      3.125135
      8.249995    145.039627      3.138993
      8.299997    145.997109      3.152626
      8.349999    146.941851      3.165749
      8.400002    147.894660      3.179453
      8.450004    148.854729      3.194105
      8.500006    149.812176      3.209367
      8.550009    150.769094      3.224507
      8.599979    151.715771      3.239598
      8.649982    152.667270      3.254096
      8.699984    153.624328      3.267570
      8.749987    154.573572      3.280552
      8.799989    155.530432      3.292419
      8.849991    156.486823      3.303404
      8.899993    157.434856      3.313840
      8.949995    158.394289      3.324148
      8.999997    159.348112      3.335074
      9.050000    160.310924      3.346432
      9.100002    161.269009      3.358303
      9.150005    162.236268      3.371062
      9.200006    163.198355      3.384193
      9.250008    164.156397      3.397597
      9.299980    165.113242      3.411676
      9.349982    166.071449      3.425079
      9.399985    167.029662      3.437996
      9.449987    167.994595      3.450476
      9.499989    168.952757      3.462502
      9.549991    169.911540      3.473996
      9.599993    170.872103      3.486111
      9.649996    171.834267      3.498174
      9.699998    172.789327      3.510557
      9.749999    173.745929      3.522617
      9.800002    174.710632      3.534203
      9.850004    175.669198      3.545730
      9.900007    176.623461      3.557507
      9.950008    177.595826      3.569633
      9.999980    178.550911      3.581462
     10.049982    179.512418      3.593512
     10.099985    180.468718      3.605638
     10.149986    181.428266      3.618444
     10.199988    182.401114      3.631678
     10.249991    183.365180      3.644261
     10.299993    184.235891      3.656745
     10.349995    185.020752      3.669079
     10.399997    185.719191      3.681461
     10.449999    186.350229      3.693032
     10.500002    186.919993      3.703874
     10.550004    187.424847      3.714242
     10.600006    187.889591      3.723573
     10.650009    188.310302      3.731971
     10.699979    188.673683      3.739773
     10.749982    189.014154      3.746612
     10.799984    189.316306      3.752767
     10.849987    189.590683      3.758245
     10.899989    189.843116      3.763359
     10.949991    190.055047      3.768083
     10.999993    190.254330      3.772335
     11.049995    190.430022      3.776406
     11.099997    190.583873      3.780375
     11.150000    190.730273      3.783581
     11.200002    190.860813      3.786405
     11.250005    190.975857      3.789130
     11.300006    191.081227      3.791644
     11.350008    191.166295      3.793723
     11.399980    191.254453      3.796082
     11.449982    191.329523      3.798084
     11.499985    191.399527      3.800007
     11.549987    191.458258      3.801738
     11.599989    191.512337      3.802869
     11.649991    191.564670      3.804252
     11.699993    191.606887      3.805681
     11.749996    191.646713      3.807211
     11.799998    191.680726      3.808405
     11.850000    191.714389      3.809479
     11.900002    191.745906      3.810507
     11.950004    191.773051      3.811371
     12.000007    191.798703      3.812271
     12.050009    191.814465      3.813142
     12.099981    191.842078      3.813925
     12.149982    191.863878      3.814570
     12.199985    191.878006      3.815394
     12.249987    191.899265      3.816319
     12.299989    191.912295      3.817029
     12.349992    191.931346      3.817729
     12.399994    191.841069      3.818298
     12.449995    191.670706      3.818688
     12.499998    191.422774      3.819101
     12.550000    191.098926      3.819288
     12.600003    190.710415      3.819580
     12.650005    190.267980      3.819720
     12.700007    189.766028      3.819784
     12.750009    189.222716      3.819904
     12.799980    188.629975      3.819584
     12.849983    188.002512      3.819235
     12.899985    187.345020      3.819044
     12.949988    186.648906      3.818993
     12.999990    185.938173      3.818459
     13.049991    185.204519      3.818589
     13.099994    184.449013      3.818035
     13.149996    183.659193      3.817536
     13.199998    182.856190      3.817087
     13.250001    182.044375      3.817049
     13.300003    181.218526      3.816770
     13.350005    180.372110      3.816276
     13.400007    179.517561      3.815891
     13.449979    178.655081      3.815546
     13.499981    177.781192      3.815296
     13.549983    176.893982      3.814765
     13.599985    175.996615      3.814349
     13.649987    175.102313      3.813913
     13.699990    174.203446      3.813033
     13.749992    173.288873      3.812363
     13.799994    172.375424      3.811638
     13.849997    171.452610      3.811107
     13.899998    170.526862      3.810629
     13.950000    169.602134      3.809711
     14.000003    168.678325      3.809007
     14.050005    167.730318      3.808251
     14.100008    166.795933      3.807693
     14.149979    165.865874      3.807312
     14.199981    164.931164      3.806787
     14.249983    163.983111      3.806436
     14.299986    163.040751      3.805937
     14.349988    162.100462      3.805427
     14.399990    161.149221      3.804541
     14.449993    160.213146      3.803926
     14.499994    159.266917      3.803557
     14.549996    158.313991      3.802918
     14.599999    157.366635      3.802405
     14.650001    156.417577      3.802126
     14.700003    155.472482      3.801936
     14.750006    154.527900      3.801460
     14.800007    153.575846      3.800971
     14.849979    152.625002      3.800652
     14.899981    151.673416      3.800243
     14.949984    150.730317      3.799937
     14.999986    149.778987      3.799660
     15.049989    148.822081      3.799107
     15.099990    147.869312      3.798364
     15.149992    146.905006      3.797635
     15.199995    145.956563      3.797223
     15.249997    145.006527      3.796669
     15.299998    144.048344      3.795743
     15.350001    143.084049      3.795154
     15.400003    142.139888      3.794135
     15.450005    141.188824      3.793340
     15.500007    140.241922      3.792503
     15.549979    139.279235      3.791750
     15.599981    138.319432      3.790949
     15.649983    137.368327      3.790046
     15.699986    136.415285      3.789416
     15.749987    135.456838      3.788483
     15.799990    134.499630      3.787582
     15.849992    133.547199      3.786894
     15.899994    132.595405      3.786396
     15.949997    131.638081      3.785765
     15.999998    130.684325      3.785075
     16.050000    129.733780      3.784759
     16.100003    128.778800      3.784108
     16.150005    127.825323      3.783401
     16.200008    126.866484      3.782703
     16.249979    125.902820      3.782014
     16.299981    124.952512      3.781516
     16.349983    123.995306      3.781068
     16.399986    123.042876      3.780176
     16.449988    122.099628      3.779495
     16.499990    121.144502      3.778334
     16.549993    120.191504      3.777593
     16.599994    119.226992      3.776805
     16.649996    118.274092      3.776034
     16.699999    117.313940      3.775341
     16.750001    116.361302      3.774594
     16.800003    115.405659      3.773862
     16.850006    114.443040      3.773080
     16.900007    113.482688      3.772194
     16.949979    112.533530      3.771396
     16.999981    111.577358      3.770556
     17.049984    110.620366      3.769495
     17.099986    109.677285      3.768662
     17.149989    108.726582      3.767851
     17.199990    107.775122      3.767121
     17.249992    106.813826      3.766403
     17.299995    105.861379      3.765696
     17.349997    104.908959      3.764999
     17.399999    103.957786      3.764371
     17.450001    103.002852      3.763989
     17.500003    102.048806      3.763585
     17.550006    101.101051      3.763587
     17.600008    100.146752      3.763345
     17.649980     99.200601      3.762821
     17.699982     98.250187      3.762167
     17.749983     97.301429      3.761579
     17.799986     96.337072      3.761293
     17.849988     95.383699      3.760548
     17.899991     94.429838      3.759694
     17.949993     93.472484      3.758681
     17.999995     92.524194      3.757831
     18.049997     91.570634      3.757065
     18.099999     90.614772      3.756438
     18.150001     89.652566      3.755934
     18.200004     88.696858      3.755297
     18.250006     87.746997      3.754602
     18.300009     86.787141      3.753793
     18.349979     85.827443      3.753371
     18.399982     84.880706      3.752746
     18.449984     83.922440      3.752001
     18.499987     82.966616      3.751330
     18.549989     82.008716      3.750849
     18.599991     81.055052      3.750232
     18.649993     80.105811      3.749555
     18.699995     79.151394      3.748885
     18.749997     78.194151      3.748160
     18.800000     77.235585      3.747263
     18.850002     76.274608      3.746639
     18.900003     75.321836      3.746138
     18.950006     74.364853      3.745382
     19.000008     73.410793      3.744519
     19.049980     72.453871      3.743620
     19.099982     71.500477      3.742872
     19.149985     70.549036      3.741955
     19.199986     69.590200      3.741129
     19.249989     68.631420      3.740264
     19.299991     67.681237      3.739180
     19.349993     66.722310      3.738082
     19.399996     65.775047      3.736972
     19.449998     64.813255      3.735729
     19.499999     63.862192      3.734672
     19.550002     62.904305      3.733170
     19.600004     61.950042      3.732186
     19.650007     60.994769      3.731177
     19.700009     60.033703      3.730269
     19.749981     59.077799      3.729331
     19.799982     58.125322      3.728424
     19.849984     57.163110      3.727426
     19.899987     56.209838      3.726100
     19.949989     55.261559      3.724601
     19.999992     54.303127      3.722947
     20.049994     53.346542      3.721459
     20.099995     52.384906      3.719753
     20.149998     51.426659      3.718157
     20.200000     50.470851      3.716354
     20.250002     49.515408      3.714853
     20.300005     48.560293      3.713259
     20.350007     47.613407      3.711213
     20.400009     46.661722      3.709677
     20.449980     45.705716      3.707868
     20.499983     44.742770      3.705751
     20.549985     43.781513      3.704151
     20.599988     42.836424      3.702223
     20.649989     41.882083      3.700610
     20.699991     40.927349      3.698974
     20.749993     39.974093      3.697320
     20.799995     39.027660      3.695525
     20.849997     38.071499      3.693300
     20.900000     37.108413      3.691053
     20.950002     36.159237      3.688970
     21.000004     35.209763      3.687156
     21.050006     34.245371      3.685096
     21.100008     33.288305      3.683181
     21.149980     32.332951      3.681153
     21.199982     31.372422      3.679205
     21.249985     30.434093      3.676903
     21.299986     29.481562      3.674953
     21.349989     28.526017      3.672709
     21.399991     27.570810      3.670629
     21.449993     26.623231      3.668635
     21.499996     25.670311      3.666535
     21.549998     24.707091      3.664218
     21.599999     23.758405      3.662194
     21.650002     22.802046      3.660189
     21.700004     21.852211      3.658079
     21.750007     20.895429      3.655936
     21.800009     19.934226      3.653886
     21.849981     18.978809      3.651674
     21.899982     18.023719      3.649439
     21.949984     17.069531      3.646878
     21.999987     16.112494      3.644208
     22.049989     15.161437      3.641621
     22.099992     14.205998      3.639048
     22.149994     13.253938      3.636245
     22.199995     12.300036      3.633600
     22.249998     11.336543      3.631036
     22.300000     10.372351      3.627936
     22.350002      9.430726      3.625023
     22.400005      8.480722      3.613185
     22.450007      7.538436      3.549551
     22.500009      6.595163      3.382783
     22.549980      5.825565      3.144738
     22.599983      5.236077      2.931291
     22.649985      4.807468      2.839471
     22.699987      4.516326      2.864073
     22.749989      4.334866      2.920700
     22.799991      4.274702      2.985032
     22.849994      4.321265      3.046654
     22.899996      4.443129      3.103212
     22.949998      4.651685      3.154664
     23.000001      4.937653      3.201459
     23.050002      5.300007      3.243940
     23.100004      5.714627      3.282113
     23.150007      6.183612      3.316834
     23.199979      6.700305      3.348327
     23.249981      7.259934      3.376976
     23.299983      7.856985      3.403066
     23.349985      8.495041      3.426791
     23.399987      9.155963      3.448631
     23.449990      9.852112      3.468471
     23.499992     10.576304      3.486448
     23.549994     11.322073      3.503238
     23.599997     12.096415      3.518655
     23.649998     12.883657      3.532530
     23.700000     13.682508      3.545078
     23.750003     14.505846      3.556738
     23.800005     15.335352      3.567292
     23.850008     16.172241      3.576792
     23.899979     17.029202      3.585707
     23.949981     17.895074      3.594159
     23.999983     18.768964      3.602253
     24.049985     19.652512      3.609843
     24.099988     20.534377      3.616674
     24.149990     21.425103      3.623433
     24.199993     22.326245      3.629210
