Shimadzu measurement
Filename
758Labor_aprilis_14_45Mg.dat
Identifier
2mN/s meres
Date 2016:4:14
Time 11:10
Indentsize=0 [æm]
 Time [s]         Load [mN]       Displ [æm] 
*****************************************************************

      0.050003      0.005981      0.002965
      0.100005      0.000988      0.006183
      0.149976     -0.008389      0.009323
      0.199978     -0.010114      0.012821
      0.249981      0.079887      0.016640
      0.299983      0.259767      0.020444
      0.349985      0.519927      0.024356
      0.399988      0.829145      0.028303
      0.449989      1.209372      0.033138
      0.499991      1.660831      0.040358
      0.549994      2.161749      0.049480
      0.599996      2.698637      0.060071
      0.649999      3.275832      0.073264
      0.700000      3.900289      0.089045
      0.750002      4.547751      0.106177
      0.800005      5.226293      0.124404
      0.849976      5.927925      0.143311
      0.899979      6.665597      0.162158
      0.949981      7.420445      0.182538
      0.999983      8.197466      0.204359
      1.049985      8.993833      0.226257
      1.099987      9.797844      0.248162
      1.149990     10.623384      0.270440
      1.199992     11.469522      0.292749
      1.249994     12.321379      0.315268
      1.299996     13.176553      0.338404
      1.349998     14.046308      0.361851
      1.400001     14.923694      0.386005
      1.450002     15.810389      0.409452
      1.500004     16.696916      0.432081
      1.549976     17.600994      0.454522
      1.599979     18.509269      0.476001
      1.649980     19.421324      0.497834
      1.699982     20.341661      0.519254
      1.749985     21.256636      0.540852
      1.799987     22.174109      0.563830
      1.849989     23.101155      0.586585
      1.899992     24.023998      0.609018
      1.949993     24.950994      0.630428
      1.999996     25.885390      0.651223
      2.049998     26.825225      0.671038
      2.100000     27.763851      0.691312
      2.150003     28.700168      0.711390
      2.200005     29.649667      0.731596
      2.249976     30.582342      0.751064
      2.299978     31.528563      0.770294
      2.349981     32.464392      0.789065
      2.399983     33.411009      0.808035
      2.449985     34.357571      0.827916
      2.499988     35.298589      0.846601
      2.549989     36.250487      0.865006
      2.599991     37.209126      0.882912
      2.649994     38.151858      0.900493
      2.699996     39.105299      0.917536
      2.749999     40.047016      0.934890
      2.800000     41.002595      0.952522
      2.850002     41.955390      0.970039
      2.900005     42.897746      0.987696
      2.949976     43.855732      1.005236
      2.999979     44.816187      1.022791
      3.049981     45.759944      1.040056
      3.099983     46.725293      1.057243
      3.149985     47.676506      1.074725
      3.199987     48.627814      1.092412
      3.249990     49.586532      1.110222
      3.299992     50.534219      1.128327
      3.349994     51.493950      1.146147
      3.399996     52.434613      1.162978
      3.449998     53.388023      1.179530
      3.500001     54.341919      1.196441
      3.550003     55.299303      1.213004
      3.599975     56.262269      1.229376
      3.649977     57.220493      1.245880
      3.699979     58.171396      1.262382
      3.749981     59.137075      1.278393
      3.799983     60.092856      1.294451
      3.849986     61.049497      1.310857
      3.899988     62.006300      1.326537
      3.949990     62.964470      1.341809
      3.999992     63.925701      1.357202
      4.049994     64.876871      1.372643
      4.099997     65.834853      1.388004
      4.149999     66.796526      1.403050
      4.200001     67.753586      1.417263
      4.250004     68.710157      1.431275
      4.300005     69.666897      1.445412
      4.349977     70.625620      1.459844
      4.399979     71.581857      1.473505
      4.449982     72.535855      1.487142
      4.499984     73.486618      1.501002
      4.549985     74.438741      1.515369
      4.599988     75.382934      1.529641
      4.649990     76.341352      1.543219
      4.699992     77.293651      1.556843
      4.749995     78.239222      1.570325
      4.799997     79.195219      1.583741
      4.849999     80.149001      1.597280
      4.900001     81.095907      1.610197
      4.950003     82.043338      1.623410
      4.999975     82.996736      1.636705
      5.049977     83.947570      1.650319
      5.099980     84.897315      1.664158
      5.149981     85.854016      1.677712
      5.199984     86.808432      1.690826
      5.249986     87.763234      1.704338
      5.299988     88.715330      1.717170
      5.349991     89.676588      1.729940
      5.399993     90.627781      1.742714
      5.449994     91.587616      1.755431
      5.499997     92.549126      1.767671
      5.549999     93.499935      1.779785
      5.600002     94.462476      1.792213
      5.650004     95.414824      1.804925
      5.699976     96.381802      1.817586
      5.749977     97.335702      1.830385
      5.799980     98.277221      1.843369
      5.849982     99.230791      1.856092
      5.899984    100.176285      1.868580
      5.949987    101.134654      1.880979
      5.999988    102.094843      1.893054
      6.049990    103.048126      1.905264
      6.099993    104.001297      1.917230
      6.149995    104.959861      1.929281
      6.199997    105.906187      1.941164
      6.250000    106.856760      1.953446
      6.300001    107.800167      1.965538
      6.350004    108.763371      1.977763
      6.399975    109.716315      1.989742
      6.449978    110.669792      2.001317
      6.499980    111.637786      2.012833
      6.549983    112.590159      2.024296
      6.599984    113.560821      2.035650
      6.649986    114.509491      2.047272
      6.699989    115.456680      2.058770
      6.749991    116.412301      2.070034
      6.799992    117.365135      2.081270
      6.849995    118.308746      2.092481
      6.899997    119.276406      2.103792
      6.949999    120.228478      2.115009
      7.000001    121.192766      2.125898
      7.050003    122.145466      2.136736
      7.099975    123.098722      2.147833
      7.149977    124.048817      2.158918
      7.199980    125.002171      2.170360
      7.249981    125.959068      2.181574
      7.299984    126.918543      2.192642
      7.349986    127.869353      2.203458
      7.399988    128.823349      2.214292
      7.449991    129.779604      2.225445
      7.499993    130.735449      2.236521
      7.549994    131.695199      2.247894
      7.599997    132.649917      2.259472
      7.649999    133.610484      2.270441
      7.700002    134.561665      2.281412
      7.750004    135.517217      2.292751
      7.799976    136.470599      2.304604
      7.849977    137.421417      2.316126
      7.899980    138.378474      2.327472
      7.949982    139.329548      2.338844
      7.999984    140.279510      2.349750
      8.049987    141.235796      2.360480
      8.099989    142.188618      2.370992
      8.149990    143.139543      2.381491
      8.199993    144.088760      2.391977
      8.249995    145.050479      2.402758
      8.299997    146.009412      2.413925
      8.350000    146.968278      2.424830
      8.400001    147.920980      2.435804
      8.450004    148.877291      2.446719
      8.499975    149.832577      2.457457
      8.549978    150.785719      2.468587
      8.599980    151.743646      2.479458
      8.649983    152.696724      2.490280
      8.699984    153.658866      2.500996
      8.749986    154.612686      2.511006
      8.799989    155.563899      2.520870
      8.849991    156.520089      2.530603
      8.899993    157.474657      2.540460
      8.949996    158.431425      2.550431
      8.999997    159.390174      2.560442
      9.050000    160.345823      2.570123
      9.100002    161.304175      2.579691
      9.150004    162.266181      2.589339
      9.199976    163.222320      2.599305
      9.249978    164.181723      2.608884
      9.299980    165.134909      2.618360
      9.349982    166.103862      2.627865
      9.399985    167.069305      2.637335
      9.449987    168.018771      2.646956
      9.499989    168.986818      2.656653
      9.549992    169.944121      2.666662
      9.599993    170.904572      2.676342
      9.649995    171.862363      2.686518
      9.699998    172.822033      2.696410
      9.750000    173.785225      2.706166
      9.800003    174.738158      2.716168
      9.850004    175.701391      2.726329
      9.899976    176.661685      2.736390
      9.949978    177.616894      2.746238
      9.999981    178.585837      2.756017
     10.049983    179.546998      2.765794
     10.099985    180.506649      2.775937
     10.149987    181.482030      2.785919
     10.199989    182.444104      2.796064
     10.249991    183.410069      2.805987
     10.299994    184.280048      2.815345
     10.349996    185.063639      2.824256
     10.399998    185.763379      2.832764
     10.450000    186.399858      2.840176
     10.500002    186.972079      2.847153
     10.550005    187.479143      2.853371
     10.599976    187.945266      2.859395
     10.649979    188.367829      2.864816
     10.699981    188.732266      2.869573
     10.749983    189.067584      2.873977
     10.799985    189.371201      2.878184
     10.849987    189.641405      2.882092
     10.899990    189.887030      2.885671
     10.949992    190.101378      2.888648
     10.999994    190.300395      2.891815
     11.049996    190.478900      2.894421
     11.099998    190.641386      2.896706
     11.150001    190.783350      2.898885
     11.200003    190.918443      2.900784
     11.249975    191.037584      2.902860
     11.299977    191.147864      2.905033
     11.349978    191.239180      2.907050
     11.399981    191.318314      2.909171
     11.449983    191.396858      2.910713
     11.499986    191.468158      2.912162
     11.549988    191.529887      2.913771
     11.599989    191.584222      2.915037
     11.649992    191.633123      2.915870
     11.699994    191.682628      2.916804
     11.749996    191.727793      2.917705
     11.799999    191.761727      2.918821
     11.850001    191.800202      2.920069
     11.900003    191.831168      2.921376
     11.950005    191.852934      2.922308
     11.999977    191.871912      2.923147
     12.049979    191.892045      2.923780
     12.100012    191.909554      2.924289
     12.149983    191.928364      2.925113
     12.199985    191.943461      2.925915
     12.249987    191.957660      2.926393
     12.299989    191.965555      2.926824
     12.349991    191.973882      2.927089
     12.399994    191.884329      2.927816
     12.449996    191.706684      2.927982
     12.499998    191.441210      2.927887
     12.550000    191.109510      2.927680
     12.600002    190.717594      2.927676
     12.650005    190.271484      2.927490
     12.699976    189.772328      2.927201
     12.749979    189.226040      2.926940
     12.799981    188.639164      2.926461
     12.849983    188.015150      2.925725
     12.899985    187.353437      2.925368
     12.949987    186.673056      2.924924
     12.999990    185.960003      2.924952
     13.049992    185.216936      2.924855
     13.099994    184.446856      2.924341
     13.149996    183.669553      2.923633
     13.199998    182.864389      2.923241
     13.250001    182.051238      2.923071
     13.300003    181.214421      2.922735
     13.349975    180.367900      2.922250
     13.399977    179.520581      2.921629
     13.449978    178.653011      2.920888
     13.499981    177.777593      2.920465
     13.549983    176.889617      2.919901
     13.599986    175.997664      2.919577
     13.649988    175.105794      2.919285
     13.699989    174.199959      2.918717
     13.749992    173.295596      2.918084
     13.799994    172.377907      2.917331
     13.849996    171.472030      2.916898
     13.899999    170.559083      2.916447
     13.950001    169.634280      2.915735
     14.000003    168.701247      2.915217
     14.050005    167.761419      2.914446
     14.099977    166.836837      2.913935
     14.149979    165.910107      2.913414
     14.199981    164.976561      2.912884
     14.249984    164.032608      2.912468
     14.299985    163.099432      2.912215
     14.349988    162.152760      2.911805
     14.399990    161.212252      2.911253
     14.449992    160.267528      2.910695
     14.499995    159.319007      2.910010
     14.549997    158.375616      2.909332
     14.599998    157.428906      2.908783
     14.650001    156.480430      2.907983
     14.700003    155.535248      2.907142
     14.749975    154.590588      2.906568
     14.799977    153.643957      2.905990
     14.849980    152.687617      2.905470
     14.899981    151.739630      2.905002
     14.949984    150.787563      2.904275
     14.999986    149.838539      2.903682
     15.049988    148.886148      2.903027
     15.099991    147.927067      2.901949
     15.149993    146.977222      2.901467
     15.199994    146.017990      2.901155
     15.249997    145.059465      2.900447
     15.299999    144.105239      2.899749
     15.350002    143.151829      2.898876
     15.400004    142.199154      2.898213
     15.449975    141.231271      2.897738
     15.499977    140.273506      2.896945
     15.549979    139.310807      2.896352
     15.599982    138.365642      2.895575
     15.649984    137.409400      2.894998
     15.699987    136.459671      2.894540
     15.749988    135.499321      2.893700
     15.799990    134.542843      2.893310
     15.849993    133.588626      2.892410
     15.899995    132.627291      2.891600
     15.949997    131.677860      2.890749
     16.000000    130.728766      2.889922
     16.050001    129.769599      2.889177
     16.100004    128.813574      2.888019
     16.149975    127.859766      2.886977
     16.199978    126.912226      2.885978
     16.249980    125.959341      2.885017
     16.299982    125.008970      2.884336
     16.349984    124.053537      2.883052
     16.399986    123.095379      2.882262
     16.449989    122.147586      2.881307
     16.499991    121.195084      2.880509
     16.549993    120.243836      2.879485
     16.599996    119.288224      2.878869
     16.649997    118.331737      2.878375
     16.699999    117.370799      2.877687
     16.750002    116.413180      2.877006
     16.800004    115.455496      2.876089
     16.849976    114.500195      2.875324
     16.899977    113.547039      2.874697
     16.949980    112.589710      2.873766
     16.999982    111.632288      2.872867
     17.049985    110.674780      2.872180
     17.099987    109.715977      2.871928
     17.149989    108.770044      2.871396
     17.199991    107.816774      2.871040
     17.249993    106.860564      2.870413
     17.299995    105.913913      2.869606
     17.349998    104.955725      2.869062
     17.400000    104.002412      2.868267
     17.450003    103.051655      2.867552
     17.500004    102.100147      2.866725
     17.549975    101.141860      2.865798
     17.599977    100.186627      2.864903
     17.649979     99.246960      2.864097
     17.699982     98.287122      2.863494
     17.749984     97.331713      2.862890
     17.799987     96.378460      2.862163
     17.849988     95.419823      2.861265
     17.899990     94.466106      2.859907
     17.949993     93.509493      2.859051
     17.999995     92.547221      2.858220
     18.049997     91.596946      2.857533
     18.100000     90.634886      2.856854
     18.150001     89.679309      2.856120
     18.200004     88.726514      2.855338
     18.249975     87.762796      2.854817
     18.299978     86.807558      2.854348
     18.349980     85.844693      2.853316
     18.399982     84.884729      2.852387
     18.449984     83.937753      2.851734
     18.499986     82.977440      2.851452
     18.549989     82.024656      2.851136
     18.599991     81.073765      2.850669
     18.649993     80.116034      2.850005
     18.699996     79.162521      2.849041
     18.749997     78.207922      2.847990
     18.799999     77.257840      2.847166
     18.850002     76.297783      2.846181
     18.900004     75.342179      2.845538
     18.949976     74.386918      2.844960
     18.999977     73.427695      2.844378
     19.049980     72.474671      2.843549
     19.099982     71.522343      2.842437
     19.149985     70.566370      2.841680
     19.199987     69.617491      2.840877
     19.249989     68.673168      2.840155
     19.299991     67.715242      2.838894
     19.349993     66.751789      2.837820
     19.399995     65.796180      2.836854
     19.449998     64.842135      2.835801
     19.500000     63.882175      2.834487
     19.550002     62.929099      2.833244
     19.600004     61.967569      2.831941
     19.649976     61.014910      2.830891
     19.699978     60.059249      2.829824
     19.749980     59.103937      2.828559
     19.799983     58.144669      2.827481
     19.849985     57.192214      2.826267
     19.899987     56.244671      2.825296
     19.949989     55.290563      2.824056
     19.999991     54.331156      2.822696
     20.049994     53.377966      2.821655
     20.099996     52.424269      2.820474
     20.149998     51.469505      2.819411
     20.200000     50.508897      2.818089
     20.250002     49.554017      2.817081
     20.300005     48.604901      2.816052
     20.349976     47.657922      2.814821
     20.399979     46.711646      2.813042
     20.449981     45.748301      2.811502
     20.499982     44.789736      2.809932
     20.549985     43.840967      2.808276
     20.599987     42.883924      2.806907
     20.649990     41.929200      2.805186
     20.699992     40.977174      2.803272
     20.749993     40.018420      2.801488
     20.799996     39.067039      2.799821
     20.849998     38.102762      2.797955
     20.900000     37.148852      2.795909
     20.950003     36.184741      2.794007
     20.999975     35.229759      2.792111
     21.049976     34.273228      2.790650
     21.099978     33.309809      2.789090
     21.149981     32.357282      2.787077
     21.199983     31.407233      2.785386
     21.249986     30.458193      2.783254
     21.299988     29.500906      2.781275
     21.349989     28.541690      2.779249
     21.399992     27.581348      2.777120
     21.449994     26.637694      2.775205
     21.499996     25.679760      2.772932
     21.549999     24.727897      2.770886
     21.600001     23.777225      2.768983
     21.650002     22.819079      2.766844
     21.700005     21.863973      2.764552
     21.749977     20.915875      2.762367
     21.799979     19.958826      2.759974
     21.849981     19.008979      2.757087
     21.899984     18.047304      2.754429
     21.949985     17.100008      2.752280
     21.999988     16.141849      2.749796
     22.049990     15.183069      2.747317
     22.099992     14.225562      2.744476
     22.149995     13.265536      2.742101
     22.199996     12.311180      2.739598
     22.249998     11.347888      2.736735
     22.300001     10.396085      2.734036
     22.350003      9.444856      2.730875
     22.399975      8.494144      2.718630
     22.449977      7.556715      2.674406
     22.499979      6.617813      2.555929
     22.549981      5.855199      2.402485
     22.599983      5.279933      2.297284
     22.649986      4.847644      2.301298
     22.699988      4.559903      2.329997
     22.749991      4.394322      2.366263
     22.799992      4.317932      2.401343
     22.849993      4.346228      2.433648
     22.899996      4.474236      2.463211
     22.949998      4.684658      2.490062
     23.000000      4.968645      2.514350
     23.050003      5.324942      2.536514
     23.099975      5.734112      2.556706
     23.149976      6.206737      2.575367
     23.199978      6.730978      2.591979
     23.249981      7.283362      2.607418
     23.299983      7.890983      2.621679
     23.349986      8.523293      2.634636
     23.399988      9.190639      2.646847
     23.449989      9.886468      2.658020
     23.499992     10.598774      2.668381
     23.549994     11.344832      2.677888
     23.599996     12.107838      2.686689
     23.649999     12.886708      2.694916
     23.700001     13.683518      2.702502
     23.750002     14.501356      2.709880
     23.800005     15.324692      2.716458
     23.849977     16.167625      2.722867
     23.899979     17.023922      2.728879
     23.949981     17.883092      2.734535
     23.999984     18.761937      2.739624
     24.049985     19.646283      2.744693
